Created as New Dataset,Sample 055 By Administrator Date Wednesday, November 24 2021
cm-1,A
7502.00,1.0507
7501.00,1.0569
7500.00,1.0627
7499.00,1.0687
7498.00,1.0748
7497.00,1.0804
7496.00,1.0852
7495.00,1.0889
7494.00,1.0922
7493.00,1.0958
7492.00,1.1002
7491.00,1.1051
7490.00,1.1099
7489.00,1.1140
7488.00,1.1174
7487.00,1.1203
7486.00,1.1220
7485.00,1.1215
7484.00,1.1186
7483.00,1.1143
7482.00,1.1100
7481.00,1.1068
7480.00,1.1050
7479.00,1.1044
7478.00,1.1046
7477.00,1.1051
7476.00,1.1054
7475.00,1.1054
7474.00,1.1051
7473.00,1.1046
7472.00,1.1038
7471.00,1.1023
7470.00,1.0992
7469.00,1.0945
7468.00,1.0889
7467.00,1.0832
7466.00,1.0778
7465.00,1.0719
7464.00,1.0648
7463.00,1.0568
7462.00,1.0485
7461.00,1.0405
7460.00,1.0324
7459.00,1.0238
7458.00,1.0151
7457.00,1.0071
7456.00,1.0007
7455.00,0.9959
7454.00,0.9922
7453.00,0.9889
7452.00,0.9854
7451.00,0.9812
7450.00,0.9761
7449.00,0.9703
7448.00,0.9642
7447.00,0.9580
7446.00,0.9516
7445.00,0.9452
7444.00,0.9389
7443.00,0.9328
7442.00,0.9267
7441.00,0.9205
7440.00,0.9141
7439.00,0.9079
7438.00,0.9016
7437.00,0.8946
7436.00,0.8868
7435.00,0.8786
7434.00,0.8708
7433.00,0.8633
7432.00,0.8558
7431.00,0.8481
7430.00,0.8405
7429.00,0.8336
7428.00,0.8276
7427.00,0.8224
7426.00,0.8174
7425.00,0.8121
7424.00,0.8064
7423.00,0.8008
7422.00,0.7959
7421.00,0.7915
7420.00,0.7872
7419.00,0.7830
7418.00,0.7791
7417.00,0.7761
7416.00,0.7741
7415.00,0.7726
7414.00,0.7710
7413.00,0.7695
7412.00,0.7687
7411.00,0.7687
7410.00,0.7694
7409.00,0.7706
7408.00,0.7723
7407.00,0.7750
7406.00,0.7787
7405.00,0.7834
7404.00,0.7885
7403.00,0.7937
7402.00,0.7988
7401.00,0.8042
7400.00,0.8101
7399.00,0.8162
7398.00,0.8222
7397.00,0.8283
7396.00,0.8347
7395.00,0.8417
7394.00,0.8493
7393.00,0.8572
7392.00,0.8654
7391.00,0.8739
7390.00,0.8828
7389.00,0.8917
7388.00,0.9006
7387.00,0.9097
7386.00,0.9189
7385.00,0.9279
7384.00,0.9367
7383.00,0.9453
7382.00,0.9540
7381.00,0.9630
7380.00,0.9720
7379.00,0.9811
7378.00,0.9902
7377.00,0.9995
7376.00,1.0086
7375.00,1.0172
7374.00,1.0252
7373.00,1.0332
7372.00,1.0415
7371.00,1.0500
7370.00,1.0580
7369.00,1.0654
7368.00,1.0727
7367.00,1.0803
7366.00,1.0883
7365.00,1.0960
7364.00,1.1028
7363.00,1.1088
7362.00,1.1146
7361.00,1.1208
7360.00,1.1272
7359.00,1.1330
7358.00,1.1378
7357.00,1.1420
7356.00,1.1463
7355.00,1.1509
7354.00,1.1552
7353.00,1.1587
7352.00,1.1616
7351.00,1.1644
7350.00,1.1672
7349.00,1.1696
7348.00,1.1714
7347.00,1.1726
7346.00,1.1736
7345.00,1.1750
7344.00,1.1772
7343.00,1.1798
7342.00,1.1818
7341.00,1.1824
7340.00,1.1819
7339.00,1.1810
7338.00,1.1799
7337.00,1.1779
7336.00,1.1750
7335.00,1.1714
7334.00,1.1680
7333.00,1.1648
7332.00,1.1617
7331.00,1.1580
7330.00,1.1535
7329.00,1.1481
7328.00,1.1425
7327.00,1.1372
7326.00,1.1321
7325.00,1.1266
7324.00,1.1205
7323.00,1.1141
7322.00,1.1076
7321.00,1.1005
7320.00,1.0924
7319.00,1.0836
7318.00,1.0751
7317.00,1.0671
7316.00,1.0591
7315.00,1.0504
7314.00,1.0410
7313.00,1.0312
7312.00,1.0208
7311.00,1.0101
7310.00,0.9992
7309.00,0.9883
7308.00,0.9777
7307.00,0.9675
7306.00,0.9578
7305.00,0.9484
7304.00,0.9391
7303.00,0.9295
7302.00,0.9197
7301.00,0.9096
7300.00,0.8998
7299.00,0.8905
7298.00,0.8817
7297.00,0.8731
7296.00,0.8645
7295.00,0.8561
7294.00,0.8481
7293.00,0.8406
7292.00,0.8334
7291.00,0.8265
7290.00,0.8200
7289.00,0.8141
7288.00,0.8088
7287.00,0.8039
7286.00,0.7996
7285.00,0.7959
7284.00,0.7928
7283.00,0.7904
7282.00,0.7886
7281.00,0.7872
7280.00,0.7864
7279.00,0.7861
7278.00,0.7865
7277.00,0.7876
7276.00,0.7892
7275.00,0.7913
7274.00,0.7940
7273.00,0.7973
7272.00,0.8012
7271.00,0.8054
7270.00,0.8100
7269.00,0.8151
7268.00,0.8207
7267.00,0.8264
7266.00,0.8322
7265.00,0.8385
7264.00,0.8455
7263.00,0.8527
7262.00,0.8600
7261.00,0.8673
7260.00,0.8752
7259.00,0.8835
7258.00,0.8918
7257.00,0.8998
7256.00,0.9075
7255.00,0.9150
7254.00,0.9227
7253.00,0.9309
7252.00,0.9396
7251.00,0.9483
7250.00,0.9567
7249.00,0.9647
7248.00,0.9728
7247.00,0.9814
7246.00,0.9901
7245.00,0.9983
7244.00,1.0060
7243.00,1.0138
7242.00,1.0222
7241.00,1.0309
7240.00,1.0391
7239.00,1.0467
7238.00,1.0538
7237.00,1.0607
7236.00,1.0677
7235.00,1.0748
7234.00,1.0820
7233.00,1.0887
7232.00,1.0946
7231.00,1.0999
7230.00,1.1050
7229.00,1.1100
7228.00,1.1147
7227.00,1.1192
7226.00,1.1236
7225.00,1.1281
7224.00,1.1324
7223.00,1.1364
7222.00,1.1398
7221.00,1.1429
7220.00,1.1457
7219.00,1.1483
7218.00,1.1508
7217.00,1.1532
7216.00,1.1555
7215.00,1.1573
7214.00,1.1582
7213.00,1.1582
7212.00,1.1576
7211.00,1.1568
7210.00,1.1557
7209.00,1.1544
7208.00,1.1529
7207.00,1.1514
7206.00,1.1498
7205.00,1.1480
7204.00,1.1460
7203.00,1.1441
7202.00,1.1424
7201.00,1.1405
7200.00,1.1380
7199.00,1.1350
7198.00,1.1312
7197.00,1.1267
7196.00,1.1216
7195.00,1.1163
7194.00,1.1110
7193.00,1.1059
7192.00,1.1006
7191.00,1.0947
7190.00,1.0882
7189.00,1.0815
7188.00,1.0742
7187.00,1.0664
7186.00,1.0580
7185.00,1.0494
7184.00,1.0406
7183.00,1.0316
7182.00,1.0225
7181.00,1.0135
7180.00,1.0048
7179.00,0.9961
7178.00,0.9869
7177.00,0.9772
7176.00,0.9672
7175.00,0.9574
7174.00,0.9476
7173.00,0.9379
7172.00,0.9283
7171.00,0.9187
7170.00,0.9090
7169.00,0.8992
7168.00,0.8897
7167.00,0.8806
7166.00,0.8721
7165.00,0.8640
7164.00,0.8559
7163.00,0.8480
7162.00,0.8402
7161.00,0.8327
7160.00,0.8256
7159.00,0.8191
7158.00,0.8132
7157.00,0.8077
7156.00,0.8025
7155.00,0.7978
7154.00,0.7939
7153.00,0.7906
7152.00,0.7878
7151.00,0.7853
7150.00,0.7834
7149.00,0.7823
7148.00,0.7819
7147.00,0.7816
7146.00,0.7814
7145.00,0.7817
7144.00,0.7827
7143.00,0.7847
7142.00,0.7875
7141.00,0.7910
7140.00,0.7951
7139.00,0.8000
7138.00,0.8054
7137.00,0.8110
7136.00,0.8166
7135.00,0.8223
7134.00,0.8284
7133.00,0.8353
7132.00,0.8427
7131.00,0.8504
7130.00,0.8584
7129.00,0.8665
7128.00,0.8748
7127.00,0.8832
7126.00,0.8915
7125.00,0.8998
7124.00,0.9081
7123.00,0.9167
7122.00,0.9258
7121.00,0.9353
7120.00,0.9449
7119.00,0.9544
7118.00,0.9637
7117.00,0.9728
7116.00,0.9817
7115.00,0.9906
7114.00,0.9997
7113.00,1.0089
7112.00,1.0184
7111.00,1.0278
7110.00,1.0371
7109.00,1.0461
7108.00,1.0549
7107.00,1.0630
7106.00,1.0705
7105.00,1.0776
7104.00,1.0846
7103.00,1.0915
7102.00,1.0983
7101.00,1.1048
7100.00,1.1115
7099.00,1.1186
7098.00,1.1261
7097.00,1.1335
7096.00,1.1405
7095.00,1.1474
7094.00,1.1545
7093.00,1.1614
7092.00,1.1675
7091.00,1.1722
7090.00,1.1759
7089.00,1.1790
7088.00,1.1820
7087.00,1.1849
7086.00,1.1875
7085.00,1.1897
7084.00,1.1914
7083.00,1.1931
7082.00,1.1948
7081.00,1.1963
7080.00,1.1970
7079.00,1.1973
7078.00,1.1977
7077.00,1.1982
7076.00,1.1984
7075.00,1.1977
7074.00,1.1962
7073.00,1.1941
7072.00,1.1916
7071.00,1.1885
7070.00,1.1852
7069.00,1.1818
7068.00,1.1787
7067.00,1.1756
7066.00,1.1722
7065.00,1.1680
7064.00,1.1630
7063.00,1.1574
7062.00,1.1514
7061.00,1.1450
7060.00,1.1382
7059.00,1.1314
7058.00,1.1247
7057.00,1.1180
7056.00,1.1107
7055.00,1.1030
7054.00,1.0949
7053.00,1.0864
7052.00,1.0771
7051.00,1.0669
7050.00,1.0564
7049.00,1.0461
7048.00,1.0361
7047.00,1.0260
7046.00,1.0158
7045.00,1.0059
7044.00,0.9960
7043.00,0.9858
7042.00,0.9749
7041.00,0.9637
7040.00,0.9525
7039.00,0.9414
7038.00,0.9306
7037.00,0.9202
7036.00,0.9102
7035.00,0.9005
7034.00,0.8911
7033.00,0.8818
7032.00,0.8726
7031.00,0.8635
7030.00,0.8549
7029.00,0.8468
7028.00,0.8394
7027.00,0.8324
7026.00,0.8257
7025.00,0.8193
7024.00,0.8133
7023.00,0.8076
7022.00,0.8023
7021.00,0.7975
7020.00,0.7936
7019.00,0.7906
7018.00,0.7885
7017.00,0.7871
7016.00,0.7863
7015.00,0.7860
7014.00,0.7863
7013.00,0.7871
7012.00,0.7883
7011.00,0.7899
7010.00,0.7923
7009.00,0.7956
7008.00,0.7996
7007.00,0.8041
7006.00,0.8088
7005.00,0.8140
7004.00,0.8197
7003.00,0.8257
7002.00,0.8319
7001.00,0.8383
7000.00,0.8451
6999.00,0.8523
6998.00,0.8601
6997.00,0.8681
6996.00,0.8764
6995.00,0.8848
6994.00,0.8935
6993.00,0.9026
6992.00,0.9119
6991.00,0.9211
6990.00,0.9300
6989.00,0.9388
6988.00,0.9477
6987.00,0.9568
6986.00,0.9661
6985.00,0.9755
6984.00,0.9848
6983.00,0.9943
6982.00,1.0038
6981.00,1.0131
6980.00,1.0220
6979.00,1.0304
6978.00,1.0384
6977.00,1.0460
6976.00,1.0536
6975.00,1.0615
6974.00,1.0696
6973.00,1.0776
6972.00,1.0853
6971.00,1.0930
6970.00,1.1009
6969.00,1.1088
6968.00,1.1163
6967.00,1.1231
6966.00,1.1294
6965.00,1.1355
6964.00,1.1414
6963.00,1.1470
6962.00,1.1522
6961.00,1.1572
6960.00,1.1621
6959.00,1.1668
6958.00,1.1713
6957.00,1.1753
6956.00,1.1788
6955.00,1.1817
6954.00,1.1840
6953.00,1.1858
6952.00,1.1875
6951.00,1.1890
6950.00,1.1903
6949.00,1.1913
6948.00,1.1921
6947.00,1.1928
6946.00,1.1935
6945.00,1.1936
6944.00,1.1929
6943.00,1.1916
6942.00,1.1900
6941.00,1.1881
6940.00,1.1857
6939.00,1.1829
6938.00,1.1797
6937.00,1.1761
6936.00,1.1719
6935.00,1.1673
6934.00,1.1626
6933.00,1.1580
6932.00,1.1531
6931.00,1.1476
6930.00,1.1418
6929.00,1.1360
6928.00,1.1300
6927.00,1.1235
6926.00,1.1165
6925.00,1.1089
6924.00,1.1010
6923.00,1.0927
6922.00,1.0844
6921.00,1.0759
6920.00,1.0670
6919.00,1.0575
6918.00,1.0475
6917.00,1.0374
6916.00,1.0272
6915.00,1.0169
6914.00,1.0064
6913.00,0.9958
6912.00,0.9854
6911.00,0.9754
6910.00,0.9655
6909.00,0.9556
6908.00,0.9457
6907.00,0.9357
6906.00,0.9259
6905.00,0.9158
6904.00,0.9054
6903.00,0.8947
6902.00,0.8843
6901.00,0.8743
6900.00,0.8651
6899.00,0.8563
6898.00,0.8478
6897.00,0.8397
6896.00,0.8320
6895.00,0.8247
6894.00,0.8178
6893.00,0.8113
6892.00,0.8052
6891.00,0.7996
6890.00,0.7948
6889.00,0.7907
6888.00,0.7873
6887.00,0.7842
6886.00,0.7817
6885.00,0.7798
6884.00,0.7785
6883.00,0.7780
6882.00,0.7781
6881.00,0.7789
6880.00,0.7803
6879.00,0.7822
6878.00,0.7848
6877.00,0.7879
6876.00,0.7917
6875.00,0.7959
6874.00,0.8006
6873.00,0.8059
6872.00,0.8117
6871.00,0.8179
6870.00,0.8247
6869.00,0.8319
6868.00,0.8394
6867.00,0.8472
6866.00,0.8551
6865.00,0.8631
6864.00,0.8712
6863.00,0.8795
6862.00,0.8884
6861.00,0.8977
6860.00,0.9074
6859.00,0.9170
6858.00,0.9268
6857.00,0.9367
6856.00,0.9465
6855.00,0.9560
6854.00,0.9654
6853.00,0.9748
6852.00,0.9843
6851.00,0.9939
6850.00,1.0035
6849.00,1.0131
6848.00,1.0225
6847.00,1.0317
6846.00,1.0406
6845.00,1.0496
6844.00,1.0587
6843.00,1.0679
6842.00,1.0770
6841.00,1.0860
6840.00,1.0950
6839.00,1.1037
6838.00,1.1122
6837.00,1.1202
6836.00,1.1276
6835.00,1.1342
6834.00,1.1404
6833.00,1.1465
6832.00,1.1526
6831.00,1.1587
6830.00,1.1646
6829.00,1.1702
6828.00,1.1756
6827.00,1.1805
6826.00,1.1849
6825.00,1.1888
6824.00,1.1921
6823.00,1.1951
6822.00,1.1980
6821.00,1.2013
6820.00,1.2047
6819.00,1.2079
6818.00,1.2106
6817.00,1.2127
6816.00,1.2142
6815.00,1.2152
6814.00,1.2157
6813.00,1.2156
6812.00,1.2148
6811.00,1.2135
6810.00,1.2120
6809.00,1.2104
6808.00,1.2083
6807.00,1.2056
6806.00,1.2026
6805.00,1.1995
6804.00,1.1964
6803.00,1.1926
6802.00,1.1879
6801.00,1.1828
6800.00,1.1775
6799.00,1.1721
6798.00,1.1663
6797.00,1.1601
6796.00,1.1534
6795.00,1.1461
6794.00,1.1383
6793.00,1.1302
6792.00,1.1219
6791.00,1.1135
6790.00,1.1051
6789.00,1.0966
6788.00,1.0878
6787.00,1.0785
6786.00,1.0687
6785.00,1.0585
6784.00,1.0479
6783.00,1.0370
6782.00,1.0259
6781.00,1.0149
6780.00,1.0039
6779.00,0.9930
6778.00,0.9822
6777.00,0.9715
6776.00,0.9608
6775.00,0.9499
6774.00,0.9391
6773.00,0.9282
6772.00,0.9174
6771.00,0.9065
6770.00,0.8959
6769.00,0.8857
6768.00,0.8760
6767.00,0.8666
6766.00,0.8575
6765.00,0.8487
6764.00,0.8405
6763.00,0.8326
6762.00,0.8251
6761.00,0.8181
6760.00,0.8118
6759.00,0.8062
6758.00,0.8013
6757.00,0.7967
6756.00,0.7924
6755.00,0.7888
6754.00,0.7858
6753.00,0.7836
6752.00,0.7820
6751.00,0.7810
6750.00,0.7807
6749.00,0.7813
6748.00,0.7825
6747.00,0.7843
6746.00,0.7868
6745.00,0.7899
6744.00,0.7934
6743.00,0.7976
6742.00,0.8023
6741.00,0.8076
6740.00,0.8133
6739.00,0.8193
6738.00,0.8257
6737.00,0.8327
6736.00,0.8401
6735.00,0.8478
6734.00,0.8559
6733.00,0.8643
6732.00,0.8730
6731.00,0.8818
6730.00,0.8908
6729.00,0.9002
6728.00,0.9099
6727.00,0.9197
6726.00,0.9293
6725.00,0.9389
6724.00,0.9486
6723.00,0.9584
6722.00,0.9682
6721.00,0.9778
6720.00,0.9873
6719.00,0.9971
6718.00,1.0070
6717.00,1.0169
6716.00,1.0264
6715.00,1.0355
6714.00,1.0444
6713.00,1.0535
6712.00,1.0625
6711.00,1.0712
6710.00,1.0796
6709.00,1.0880
6708.00,1.0964
6707.00,1.1046
6706.00,1.1124
6705.00,1.1198
6704.00,1.1269
6703.00,1.1339
6702.00,1.1407
6701.00,1.1473
6700.00,1.1534
6699.00,1.1589
6698.00,1.1642
6697.00,1.1693
6696.00,1.1742
6695.00,1.1786
6694.00,1.1826
6693.00,1.1864
6692.00,1.1904
6691.00,1.1942
6690.00,1.1972
6689.00,1.1994
6688.00,1.2011
6687.00,1.2024
6686.00,1.2035
6685.00,1.2042
6684.00,1.2049
6683.00,1.2054
6682.00,1.2057
6681.00,1.2052
6680.00,1.2039
6679.00,1.2022
6678.00,1.2002
6677.00,1.1980
6676.00,1.1955
6675.00,1.1929
6674.00,1.1904
6673.00,1.1879
6672.00,1.1847
6671.00,1.1804
6670.00,1.1754
6669.00,1.1701
6668.00,1.1647
6667.00,1.1589
6666.00,1.1530
6665.00,1.1469
6664.00,1.1406
6663.00,1.1337
6662.00,1.1264
6661.00,1.1190
6660.00,1.1114
6659.00,1.1036
6658.00,1.0953
6657.00,1.0867
6656.00,1.0776
6655.00,1.0679
6654.00,1.0575
6653.00,1.0469
6652.00,1.0362
6651.00,1.0258
6650.00,1.0157
6649.00,1.0057
6648.00,0.9955
6647.00,0.9849
6646.00,0.9737
6645.00,0.9625
6644.00,0.9512
6643.00,0.9400
6642.00,0.9291
6641.00,0.9184
6640.00,0.9080
6639.00,0.8977
6638.00,0.8876
6637.00,0.8777
6636.00,0.8680
6635.00,0.8583
6634.00,0.8490
6633.00,0.8402
6632.00,0.8320
6631.00,0.8243
6630.00,0.8169
6629.00,0.8099
6628.00,0.8034
6627.00,0.7976
6626.00,0.7922
6625.00,0.7874
6624.00,0.7833
6623.00,0.7798
6622.00,0.7771
6621.00,0.7750
6620.00,0.7734
6619.00,0.7724
6618.00,0.7722
6617.00,0.7728
6616.00,0.7740
6615.00,0.7760
6614.00,0.7788
6613.00,0.7822
6612.00,0.7860
6611.00,0.7901
6610.00,0.7947
6609.00,0.8000
6608.00,0.8060
6607.00,0.8124
6606.00,0.8191
6605.00,0.8264
6604.00,0.8342
6603.00,0.8424
6602.00,0.8510
6601.00,0.8599
6600.00,0.8691
6599.00,0.8785
6598.00,0.8881
6597.00,0.8978
6596.00,0.9076
6595.00,0.9174
6594.00,0.9272
6593.00,0.9373
6592.00,0.9474
6591.00,0.9576
6590.00,0.9678
6589.00,0.9781
6588.00,0.9884
6587.00,0.9983
6586.00,1.0081
6585.00,1.0181
6584.00,1.0282
6583.00,1.0381
6582.00,1.0477
6581.00,1.0571
6580.00,1.0666
6579.00,1.0765
6578.00,1.0862
6577.00,1.0956
6576.00,1.1046
6575.00,1.1135
6574.00,1.1221
6573.00,1.1300
6572.00,1.1373
6571.00,1.1444
6570.00,1.1515
6569.00,1.1589
6568.00,1.1662
6567.00,1.1729
6566.00,1.1792
6565.00,1.1852
6564.00,1.1911
6563.00,1.1965
6562.00,1.2014
6561.00,1.2060
6560.00,1.2105
6559.00,1.2145
6558.00,1.2177
6557.00,1.2204
6556.00,1.2230
6555.00,1.2257
6554.00,1.2283
6553.00,1.2306
6552.00,1.2325
6551.00,1.2341
6550.00,1.2351
6549.00,1.2354
6548.00,1.2352
6547.00,1.2347
6546.00,1.2340
6545.00,1.2331
6544.00,1.2318
6543.00,1.2298
6542.00,1.2271
6541.00,1.2238
6540.00,1.2202
6539.00,1.2161
6538.00,1.2116
6537.00,1.2067
6536.00,1.2017
6535.00,1.1966
6534.00,1.1910
6533.00,1.1848
6532.00,1.1781
6531.00,1.1711
6530.00,1.1636
6529.00,1.1554
6528.00,1.1468
6527.00,1.1380
6526.00,1.1290
6525.00,1.1195
6524.00,1.1096
6523.00,1.0995
6522.00,1.0893
6521.00,1.0790
6520.00,1.0684
6519.00,1.0574
6518.00,1.0464
6517.00,1.0353
6516.00,1.0240
6515.00,1.0123
6514.00,1.0002
6513.00,0.9878
6512.00,0.9755
6511.00,0.9633
6510.00,0.9512
6509.00,0.9394
6508.00,0.9279
6507.00,0.9167
6506.00,0.9059
6505.00,0.8953
6504.00,0.8847
6503.00,0.8742
6502.00,0.8641
6501.00,0.8544
6500.00,0.8451
6499.00,0.8363
6498.00,0.8280
6497.00,0.8204
6496.00,0.8133
6495.00,0.8067
6494.00,0.8007
6493.00,0.7953
6492.00,0.7907
6491.00,0.7866
6490.00,0.7832
6489.00,0.7806
6488.00,0.7785
6487.00,0.7772
6486.00,0.7767
6485.00,0.7769
6484.00,0.7778
6483.00,0.7794
6482.00,0.7818
6481.00,0.7848
6480.00,0.7885
6479.00,0.7925
6478.00,0.7972
6477.00,0.8026
6476.00,0.8086
6475.00,0.8151
6474.00,0.8222
6473.00,0.8298
6472.00,0.8379
6471.00,0.8462
6470.00,0.8546
6469.00,0.8634
6468.00,0.8723
6467.00,0.8816
6466.00,0.8911
6465.00,0.9007
6464.00,0.9105
6463.00,0.9203
6462.00,0.9302
6461.00,0.9403
6460.00,0.9506
6459.00,0.9611
6458.00,0.9717
6457.00,0.9822
6456.00,0.9926
6455.00,1.0031
6454.00,1.0135
6453.00,1.0237
6452.00,1.0336
6451.00,1.0433
6450.00,1.0530
6449.00,1.0628
6448.00,1.0725
6447.00,1.0819
6446.00,1.0910
6445.00,1.0998
6444.00,1.1083
6443.00,1.1166
6442.00,1.1245
6441.00,1.1323
6440.00,1.1398
6439.00,1.1472
6438.00,1.1545
6437.00,1.1618
6436.00,1.1687
6435.00,1.1750
6434.00,1.1806
6433.00,1.1860
6432.00,1.1912
6431.00,1.1962
6430.00,1.2008
6429.00,1.2049
6428.00,1.2084
6427.00,1.2118
6426.00,1.2152
6425.00,1.2185
6424.00,1.2212
6423.00,1.2232
6422.00,1.2246
6421.00,1.2257
6420.00,1.2263
6419.00,1.2265
6418.00,1.2264
6417.00,1.2261
6416.00,1.2258
6415.00,1.2251
6414.00,1.2239
6413.00,1.2219
6412.00,1.2192
6411.00,1.2161
6410.00,1.2131
6409.00,1.2100
6408.00,1.2065
6407.00,1.2025
6406.00,1.1980
6405.00,1.1933
6404.00,1.1882
6403.00,1.1828
6402.00,1.1771
6401.00,1.1710
6400.00,1.1647
6399.00,1.1578
6398.00,1.1504
6397.00,1.1425
6396.00,1.1343
6395.00,1.1258
6394.00,1.1174
6393.00,1.1089
6392.00,1.1000
6391.00,1.0902
6390.00,1.0799
6389.00,1.0694
6388.00,1.0588
6387.00,1.0481
6386.00,1.0373
6385.00,1.0265
6384.00,1.0155
6383.00,1.0041
6382.00,0.9925
6381.00,0.9808
6380.00,0.9692
6379.00,0.9576
6378.00,0.9461
6377.00,0.9349
6376.00,0.9238
6375.00,0.9126
6374.00,0.9015
6373.00,0.8905
6372.00,0.8797
6371.00,0.8691
6370.00,0.8587
6369.00,0.8485
6368.00,0.8389
6367.00,0.8298
6366.00,0.8214
6365.00,0.8137
6364.00,0.8067
6363.00,0.8003
6362.00,0.7944
6361.00,0.7890
6360.00,0.7842
6359.00,0.7799
6358.00,0.7763
6357.00,0.7733
6356.00,0.7712
6355.00,0.7699
6354.00,0.7694
6353.00,0.7697
6352.00,0.7709
6351.00,0.7729
6350.00,0.7755
6349.00,0.7789
6348.00,0.7830
6347.00,0.7876
6346.00,0.7929
6345.00,0.7986
6344.00,0.8048
6343.00,0.8114
6342.00,0.8184
6341.00,0.8257
6340.00,0.8335
6339.00,0.8417
6338.00,0.8504
6337.00,0.8596
6336.00,0.8691
6335.00,0.8789
6334.00,0.8891
6333.00,0.8995
6332.00,0.9101
6331.00,0.9207
6330.00,0.9314
6329.00,0.9420
6328.00,0.9526
6327.00,0.9633
6326.00,0.9742
6325.00,0.9852
6324.00,0.9963
6323.00,1.0073
6322.00,1.0183
6321.00,1.0291
6320.00,1.0398
6319.00,1.0504
6318.00,1.0609
6317.00,1.0715
6316.00,1.0819
6315.00,1.0921
6314.00,1.1019
6313.00,1.1112
6312.00,1.1203
6311.00,1.1294
6310.00,1.1382
6309.00,1.1467
6308.00,1.1549
6307.00,1.1629
6306.00,1.1709
6305.00,1.1785
6304.00,1.1854
6303.00,1.1919
6302.00,1.1983
6301.00,1.2046
6300.00,1.2106
6299.00,1.2162
6298.00,1.2217
6297.00,1.2274
6296.00,1.2330
6295.00,1.2381
6294.00,1.2425
6293.00,1.2460
6292.00,1.2489
6291.00,1.2514
6290.00,1.2535
6289.00,1.2554
6288.00,1.2571
6287.00,1.2586
6286.00,1.2598
6285.00,1.2604
6284.00,1.2603
6283.00,1.2597
6282.00,1.2588
6281.00,1.2577
6280.00,1.2558
6279.00,1.2532
6278.00,1.2498
6277.00,1.2460
6276.00,1.2418
6275.00,1.2373
6274.00,1.2330
6273.00,1.2289
6272.00,1.2246
6271.00,1.2195
6270.00,1.2134
6269.00,1.2066
6268.00,1.1994
6267.00,1.1919
6266.00,1.1839
6265.00,1.1758
6264.00,1.1675
6263.00,1.1589
6262.00,1.1498
6261.00,1.1401
6260.00,1.1300
6259.00,1.1197
6258.00,1.1092
6257.00,1.0984
6256.00,1.0871
6255.00,1.0753
6254.00,1.0634
6253.00,1.0514
6252.00,1.0393
6251.00,1.0270
6250.00,1.0146
6249.00,1.0020
6248.00,0.9893
6247.00,0.9763
6246.00,0.9634
6245.00,0.9508
6244.00,0.9386
6243.00,0.9265
6242.00,0.9145
6241.00,0.9029
6240.00,0.8915
6239.00,0.8801
6238.00,0.8690
6237.00,0.8583
6236.00,0.8482
6235.00,0.8386
6234.00,0.8293
6233.00,0.8207
6232.00,0.8127
6231.00,0.8055
6230.00,0.7988
6229.00,0.7928
6228.00,0.7875
6227.00,0.7831
6226.00,0.7794
6225.00,0.7765
6224.00,0.7743
6223.00,0.7727
6222.00,0.7719
6221.00,0.7719
6220.00,0.7726
6219.00,0.7741
6218.00,0.7763
6217.00,0.7792
6216.00,0.7830
6215.00,0.7874
6214.00,0.7924
6213.00,0.7980
6212.00,0.8041
6211.00,0.8109
6210.00,0.8183
6209.00,0.8262
6208.00,0.8345
6207.00,0.8431
6206.00,0.8521
6205.00,0.8614
6204.00,0.8711
6203.00,0.8810
6202.00,0.8911
6201.00,0.9013
6200.00,0.9117
6199.00,0.9221
6198.00,0.9327
6197.00,0.9434
6196.00,0.9541
6195.00,0.9650
6194.00,0.9761
6193.00,0.9872
6192.00,0.9982
6191.00,1.0088
6190.00,1.0192
6189.00,1.0295
6188.00,1.0399
6187.00,1.0501
6186.00,1.0603
6185.00,1.0707
6184.00,1.0810
6183.00,1.0909
6182.00,1.1002
6181.00,1.1092
6180.00,1.1182
6179.00,1.1273
6178.00,1.1364
6177.00,1.1452
6176.00,1.1537
