Created as New Dataset,Sample 064 By Administrator Date Wednesday, November 24 2021
cm-1,A
7502.00,0.9889
7501.00,0.9774
7500.00,0.9662
7499.00,0.9552
7498.00,0.9446
7497.00,0.9341
7496.00,0.9240
7495.00,0.9140
7494.00,0.9041
7493.00,0.8947
7492.00,0.8859
7491.00,0.8776
7490.00,0.8694
7489.00,0.8610
7488.00,0.8528
7487.00,0.8451
7486.00,0.8378
7485.00,0.8306
7484.00,0.8236
7483.00,0.8170
7482.00,0.8109
7481.00,0.8057
7480.00,0.8014
7479.00,0.7978
7478.00,0.7947
7477.00,0.7918
7476.00,0.7896
7475.00,0.7881
7474.00,0.7874
7473.00,0.7870
7472.00,0.7869
7471.00,0.7872
7470.00,0.7880
7469.00,0.7894
7468.00,0.7913
7467.00,0.7938
7466.00,0.7968
7465.00,0.8004
7464.00,0.8047
7463.00,0.8097
7462.00,0.8153
7461.00,0.8212
7460.00,0.8272
7459.00,0.8332
7458.00,0.8392
7457.00,0.8453
7456.00,0.8517
7455.00,0.8585
7454.00,0.8659
7453.00,0.8737
7452.00,0.8819
7451.00,0.8906
7450.00,0.8994
7449.00,0.9079
7448.00,0.9158
7447.00,0.9235
7446.00,0.9313
7445.00,0.9391
7444.00,0.9466
7443.00,0.9536
7442.00,0.9607
7441.00,0.9686
7440.00,0.9772
7439.00,0.9859
7438.00,0.9939
7437.00,1.0012
7436.00,1.0084
7435.00,1.0158
7434.00,1.0235
7433.00,1.0309
7432.00,1.0377
7431.00,1.0435
7430.00,1.0489
7429.00,1.0543
7428.00,1.0600
7427.00,1.0660
7426.00,1.0721
7425.00,1.0778
7424.00,1.0833
7423.00,1.0885
7422.00,1.0933
7421.00,1.0974
7420.00,1.1007
7419.00,1.1028
7418.00,1.1038
7417.00,1.1042
7416.00,1.1045
7415.00,1.1048
7414.00,1.1050
7413.00,1.1046
7412.00,1.1034
7411.00,1.1017
7410.00,1.0996
7409.00,1.0978
7408.00,1.0966
7407.00,1.0958
7406.00,1.0949
7405.00,1.0932
7404.00,1.0906
7403.00,1.0874
7402.00,1.0836
7401.00,1.0793
7400.00,1.0743
7399.00,1.0687
7398.00,1.0627
7397.00,1.0568
7396.00,1.0512
7395.00,1.0463
7394.00,1.0420
7393.00,1.0380
7392.00,1.0343
7391.00,1.0313
7390.00,1.0288
7389.00,1.0266
7388.00,1.0242
7387.00,1.0215
7386.00,1.0189
7385.00,1.0165
7384.00,1.0141
7383.00,1.0115
7382.00,1.0087
7381.00,1.0055
7380.00,1.0016
7379.00,0.9969
7378.00,0.9915
7377.00,0.9856
7376.00,0.9791
7375.00,0.9718
7374.00,0.9635
7373.00,0.9546
7372.00,0.9457
7371.00,0.9370
7370.00,0.9284
7369.00,0.9195
7368.00,0.9104
7367.00,0.9015
7366.00,0.8932
7365.00,0.8854
7364.00,0.8776
7363.00,0.8695
7362.00,0.8614
7361.00,0.8536
7360.00,0.8464
7359.00,0.8395
7358.00,0.8326
7357.00,0.8257
7356.00,0.8192
7355.00,0.8135
7354.00,0.8086
7353.00,0.8042
7352.00,0.8001
7351.00,0.7960
7350.00,0.7920
7349.00,0.7882
7348.00,0.7844
7347.00,0.7807
7346.00,0.7770
7345.00,0.7741
7344.00,0.7723
7343.00,0.7719
7342.00,0.7723
7341.00,0.7731
7340.00,0.7744
7339.00,0.7763
7338.00,0.7786
7337.00,0.7812
7336.00,0.7840
7335.00,0.7871
7334.00,0.7909
7333.00,0.7955
7332.00,0.8008
7331.00,0.8065
7330.00,0.8124
7329.00,0.8185
7328.00,0.8250
7327.00,0.8320
7326.00,0.8397
7325.00,0.8476
7324.00,0.8557
7323.00,0.8639
7322.00,0.8723
7321.00,0.8809
7320.00,0.8897
7319.00,0.8983
7318.00,0.9067
7317.00,0.9151
7316.00,0.9239
7315.00,0.9334
7314.00,0.9435
7313.00,0.9536
7312.00,0.9636
7311.00,0.9735
7310.00,0.9831
7309.00,0.9925
7308.00,1.0017
7307.00,1.0110
7306.00,1.0202
7305.00,1.0292
7304.00,1.0377
7303.00,1.0462
7302.00,1.0554
7301.00,1.0649
7300.00,1.0738
7299.00,1.0817
7298.00,1.0891
7297.00,1.0968
7296.00,1.1044
7295.00,1.1114
7294.00,1.1171
7293.00,1.1222
7292.00,1.1274
7291.00,1.1326
7290.00,1.1375
7289.00,1.1422
7288.00,1.1469
7287.00,1.1522
7286.00,1.1576
7285.00,1.1626
7284.00,1.1669
7283.00,1.1706
7282.00,1.1739
7281.00,1.1768
7280.00,1.1792
7279.00,1.1814
7278.00,1.1837
7277.00,1.1863
7276.00,1.1891
7275.00,1.1914
7274.00,1.1929
7273.00,1.1936
7272.00,1.1936
7271.00,1.1929
7270.00,1.1913
7269.00,1.1890
7268.00,1.1865
7267.00,1.1840
7266.00,1.1813
7265.00,1.1777
7264.00,1.1733
7263.00,1.1688
7262.00,1.1645
7261.00,1.1603
7260.00,1.1556
7259.00,1.1502
7258.00,1.1443
7257.00,1.1383
7256.00,1.1319
7255.00,1.1246
7254.00,1.1167
7253.00,1.1083
7252.00,1.1000
7251.00,1.0918
7250.00,1.0832
7249.00,1.0743
7248.00,1.0651
7247.00,1.0557
7246.00,1.0465
7245.00,1.0376
7244.00,1.0285
7243.00,1.0189
7242.00,1.0087
7241.00,0.9982
7240.00,0.9880
7239.00,0.9780
7238.00,0.9679
7237.00,0.9576
7236.00,0.9472
7235.00,0.9371
7234.00,0.9271
7233.00,0.9171
7232.00,0.9072
7231.00,0.8972
7230.00,0.8872
7229.00,0.8776
7228.00,0.8683
7227.00,0.8595
7226.00,0.8508
7225.00,0.8422
7224.00,0.8340
7223.00,0.8265
7222.00,0.8200
7221.00,0.8142
7220.00,0.8090
7219.00,0.8042
7218.00,0.7999
7217.00,0.7961
7216.00,0.7926
7215.00,0.7896
7214.00,0.7870
7213.00,0.7849
7212.00,0.7835
7211.00,0.7830
7210.00,0.7836
7209.00,0.7849
7208.00,0.7865
7207.00,0.7883
7206.00,0.7906
7205.00,0.7936
7204.00,0.7972
7203.00,0.8013
7202.00,0.8058
7201.00,0.8109
7200.00,0.8167
7199.00,0.8230
7198.00,0.8296
7197.00,0.8363
7196.00,0.8429
7195.00,0.8494
7194.00,0.8560
7193.00,0.8630
7192.00,0.8706
7191.00,0.8787
7190.00,0.8870
7189.00,0.8956
7188.00,0.9044
7187.00,0.9133
7186.00,0.9222
7185.00,0.9309
7184.00,0.9398
7183.00,0.9490
7182.00,0.9584
7181.00,0.9678
7180.00,0.9769
7179.00,0.9860
7178.00,0.9949
7177.00,1.0034
7176.00,1.0117
7175.00,1.0202
7174.00,1.0287
7173.00,1.0373
7172.00,1.0458
7171.00,1.0541
7170.00,1.0623
7169.00,1.0700
7168.00,1.0767
7167.00,1.0828
7166.00,1.0892
7165.00,1.0964
7164.00,1.1038
7163.00,1.1106
7162.00,1.1165
7161.00,1.1220
7160.00,1.1275
7159.00,1.1327
7158.00,1.1371
7157.00,1.1408
7156.00,1.1442
7155.00,1.1479
7154.00,1.1520
7153.00,1.1560
7152.00,1.1595
7151.00,1.1624
7150.00,1.1648
7149.00,1.1666
7148.00,1.1682
7147.00,1.1697
7146.00,1.1709
7145.00,1.1717
7144.00,1.1720
7143.00,1.1719
7142.00,1.1713
7141.00,1.1701
7140.00,1.1684
7139.00,1.1665
7138.00,1.1645
7137.00,1.1623
7136.00,1.1601
7135.00,1.1580
7134.00,1.1558
7133.00,1.1532
7132.00,1.1501
7131.00,1.1464
7130.00,1.1416
7129.00,1.1359
7128.00,1.1298
7127.00,1.1239
7126.00,1.1180
7125.00,1.1114
7124.00,1.1041
7123.00,1.0968
7122.00,1.0898
7121.00,1.0827
7120.00,1.0750
7119.00,1.0667
7118.00,1.0584
7117.00,1.0502
7116.00,1.0418
7115.00,1.0331
7114.00,1.0240
7113.00,1.0146
7112.00,1.0050
7111.00,0.9953
7110.00,0.9856
7109.00,0.9758
7108.00,0.9657
7107.00,0.9558
7106.00,0.9461
7105.00,0.9366
7104.00,0.9269
7103.00,0.9169
7102.00,0.9070
7101.00,0.8971
7100.00,0.8874
7099.00,0.8778
7098.00,0.8685
7097.00,0.8593
7096.00,0.8504
7095.00,0.8420
7094.00,0.8341
7093.00,0.8268
7092.00,0.8199
7091.00,0.8134
7090.00,0.8072
7089.00,0.8015
7088.00,0.7965
7087.00,0.7923
7086.00,0.7887
7085.00,0.7858
7084.00,0.7833
7083.00,0.7811
7082.00,0.7795
7081.00,0.7784
7080.00,0.7780
7079.00,0.7782
7078.00,0.7790
7077.00,0.7802
7076.00,0.7822
7075.00,0.7851
7074.00,0.7889
7073.00,0.7933
7072.00,0.7978
7071.00,0.8026
7070.00,0.8078
7069.00,0.8135
7068.00,0.8197
7067.00,0.8263
7066.00,0.8332
7065.00,0.8406
7064.00,0.8484
7063.00,0.8566
7062.00,0.8650
7061.00,0.8736
7060.00,0.8820
7059.00,0.8902
7058.00,0.8986
7057.00,0.9074
7056.00,0.9167
7055.00,0.9260
7054.00,0.9353
7053.00,0.9448
7052.00,0.9543
7051.00,0.9639
7050.00,0.9734
7049.00,0.9828
7048.00,0.9923
7047.00,1.0018
7046.00,1.0112
7045.00,1.0203
7044.00,1.0293
7043.00,1.0383
7042.00,1.0475
7041.00,1.0567
7040.00,1.0660
7039.00,1.0754
7038.00,1.0846
7037.00,1.0935
7036.00,1.1018
7035.00,1.1095
7034.00,1.1167
7033.00,1.1236
7032.00,1.1301
7031.00,1.1363
7030.00,1.1423
7029.00,1.1484
7028.00,1.1545
7027.00,1.1605
7026.00,1.1664
7025.00,1.1723
7024.00,1.1779
7023.00,1.1830
7022.00,1.1877
7021.00,1.1919
7020.00,1.1954
7019.00,1.1980
7018.00,1.2000
7017.00,1.2017
7016.00,1.2033
7015.00,1.2045
7014.00,1.2052
7013.00,1.2052
7012.00,1.2045
7011.00,1.2035
7010.00,1.2025
7009.00,1.2019
7008.00,1.2012
7007.00,1.2001
7006.00,1.1987
7005.00,1.1971
7004.00,1.1954
7003.00,1.1931
7002.00,1.1896
7001.00,1.1851
7000.00,1.1801
6999.00,1.1753
6998.00,1.1705
6997.00,1.1652
6996.00,1.1589
6995.00,1.1522
6994.00,1.1453
6993.00,1.1381
6992.00,1.1304
6991.00,1.1220
6990.00,1.1134
6989.00,1.1051
6988.00,1.0969
6987.00,1.0886
6986.00,1.0799
6985.00,1.0706
6984.00,1.0604
6983.00,1.0496
6982.00,1.0387
6981.00,1.0278
6980.00,1.0170
6979.00,1.0060
6978.00,0.9951
6977.00,0.9845
6976.00,0.9743
6975.00,0.9638
6974.00,0.9528
6973.00,0.9414
6972.00,0.9301
6971.00,0.9191
6970.00,0.9084
6969.00,0.8980
6968.00,0.8878
6967.00,0.8779
6966.00,0.8686
6965.00,0.8599
6964.00,0.8516
6963.00,0.8435
6962.00,0.8356
6961.00,0.8282
6960.00,0.8213
6959.00,0.8146
6958.00,0.8083
6957.00,0.8025
6956.00,0.7975
6955.00,0.7930
6954.00,0.7892
6953.00,0.7861
6952.00,0.7839
6951.00,0.7825
6950.00,0.7817
6949.00,0.7815
6948.00,0.7819
6947.00,0.7828
6946.00,0.7841
6945.00,0.7859
6944.00,0.7884
6943.00,0.7915
6942.00,0.7953
6941.00,0.7997
6940.00,0.8045
6939.00,0.8099
6938.00,0.8159
6937.00,0.8221
6936.00,0.8285
6935.00,0.8352
6934.00,0.8424
6933.00,0.8501
6932.00,0.8581
6931.00,0.8663
6930.00,0.8745
6929.00,0.8832
6928.00,0.8922
6927.00,0.9015
6926.00,0.9109
6925.00,0.9205
6924.00,0.9303
6923.00,0.9402
6922.00,0.9501
6921.00,0.9599
6920.00,0.9694
6919.00,0.9788
6918.00,0.9880
6917.00,0.9973
6916.00,1.0065
6915.00,1.0159
6914.00,1.0255
6913.00,1.0353
6912.00,1.0450
6911.00,1.0544
6910.00,1.0633
6909.00,1.0718
6908.00,1.0800
6907.00,1.0880
6906.00,1.0957
6905.00,1.1031
6904.00,1.1104
6903.00,1.1177
6902.00,1.1250
6901.00,1.1322
6900.00,1.1388
6899.00,1.1449
6898.00,1.1507
6897.00,1.1568
6896.00,1.1628
6895.00,1.1681
6894.00,1.1725
6893.00,1.1762
6892.00,1.1797
6891.00,1.1831
6890.00,1.1862
6889.00,1.1890
6888.00,1.1915
6887.00,1.1937
6886.00,1.1956
6885.00,1.1971
6884.00,1.1981
6883.00,1.1987
6882.00,1.1989
6881.00,1.1987
6880.00,1.1980
6879.00,1.1967
6878.00,1.1950
6877.00,1.1931
6876.00,1.1912
6875.00,1.1891
6874.00,1.1867
6873.00,1.1841
6872.00,1.1811
6871.00,1.1774
6870.00,1.1728
6869.00,1.1675
6868.00,1.1620
6867.00,1.1564
6866.00,1.1509
6865.00,1.1454
6864.00,1.1396
6863.00,1.1333
6862.00,1.1261
6861.00,1.1182
6860.00,1.1099
6859.00,1.1013
6858.00,1.0926
6857.00,1.0840
6856.00,1.0754
6855.00,1.0668
6854.00,1.0581
6853.00,1.0490
6852.00,1.0394
6851.00,1.0295
6850.00,1.0192
6849.00,1.0087
6848.00,0.9978
6847.00,0.9868
6846.00,0.9759
6845.00,0.9651
6844.00,0.9543
6843.00,0.9435
6842.00,0.9327
6841.00,0.9221
6840.00,0.9115
6839.00,0.9009
6838.00,0.8904
6837.00,0.8802
6836.00,0.8704
6835.00,0.8610
6834.00,0.8521
6833.00,0.8436
6832.00,0.8353
6831.00,0.8274
6830.00,0.8200
6829.00,0.8132
6828.00,0.8069
6827.00,0.8009
6826.00,0.7953
6825.00,0.7902
6824.00,0.7858
6823.00,0.7821
6822.00,0.7790
6821.00,0.7765
6820.00,0.7749
6819.00,0.7740
6818.00,0.7739
6817.00,0.7744
6816.00,0.7755
6815.00,0.7770
6814.00,0.7792
6813.00,0.7821
6812.00,0.7856
6811.00,0.7898
6810.00,0.7944
6809.00,0.7997
6808.00,0.8055
6807.00,0.8120
6806.00,0.8187
6805.00,0.8256
6804.00,0.8327
6803.00,0.8403
6802.00,0.8482
6801.00,0.8564
6800.00,0.8646
6799.00,0.8730
6798.00,0.8817
6797.00,0.8909
6796.00,0.9003
6795.00,0.9098
6794.00,0.9195
6793.00,0.9296
6792.00,0.9397
6791.00,0.9497
6790.00,0.9593
6789.00,0.9690
6788.00,0.9787
6787.00,0.9887
6786.00,0.9990
6785.00,1.0097
6784.00,1.0204
6783.00,1.0308
6782.00,1.0407
6781.00,1.0503
6780.00,1.0597
6779.00,1.0688
6778.00,1.0776
6777.00,1.0860
6776.00,1.0946
6775.00,1.1033
6774.00,1.1118
6773.00,1.1197
6772.00,1.1273
6771.00,1.1351
6770.00,1.1432
6769.00,1.1510
6768.00,1.1577
6767.00,1.1636
6766.00,1.1692
6765.00,1.1747
6764.00,1.1800
6763.00,1.1851
6762.00,1.1900
6761.00,1.1950
6760.00,1.1999
6759.00,1.2043
6758.00,1.2079
6757.00,1.2107
6756.00,1.2127
6755.00,1.2141
6754.00,1.2155
6753.00,1.2168
6752.00,1.2179
6751.00,1.2184
6750.00,1.2186
6749.00,1.2189
6748.00,1.2194
6747.00,1.2197
6746.00,1.2194
6745.00,1.2182
6744.00,1.2162
6743.00,1.2139
6742.00,1.2111
6741.00,1.2076
6740.00,1.2034
6739.00,1.1987
6738.00,1.1941
6737.00,1.1892
6736.00,1.1838
6735.00,1.1778
6734.00,1.1714
6733.00,1.1647
6732.00,1.1577
6731.00,1.1506
6730.00,1.1433
6729.00,1.1355
6728.00,1.1270
6727.00,1.1176
6726.00,1.1079
6725.00,1.0979
6724.00,1.0877
6723.00,1.0772
6722.00,1.0668
6721.00,1.0564
6720.00,1.0459
6719.00,1.0351
6718.00,1.0241
6717.00,1.0129
6716.00,1.0015
6715.00,0.9896
6714.00,0.9776
6713.00,0.9657
6712.00,0.9539
6711.00,0.9423
6710.00,0.9309
6709.00,0.9199
6708.00,0.9094
6707.00,0.8991
6706.00,0.8891
6705.00,0.8792
6704.00,0.8693
6703.00,0.8594
6702.00,0.8498
6701.00,0.8407
6700.00,0.8321
6699.00,0.8241
6698.00,0.8166
6697.00,0.8097
6696.00,0.8035
6695.00,0.7978
6694.00,0.7927
6693.00,0.7881
6692.00,0.7840
6691.00,0.7807
6690.00,0.7782
6689.00,0.7765
6688.00,0.7754
6687.00,0.7749
6686.00,0.7751
6685.00,0.7760
6684.00,0.7777
6683.00,0.7799
6682.00,0.7827
6681.00,0.7863
6680.00,0.7907
6679.00,0.7956
6678.00,0.8009
6677.00,0.8065
6676.00,0.8124
6675.00,0.8188
6674.00,0.8258
6673.00,0.8331
6672.00,0.8408
6671.00,0.8489
6670.00,0.8576
6669.00,0.8667
6668.00,0.8759
6667.00,0.8853
6666.00,0.8950
6665.00,0.9051
6664.00,0.9154
6663.00,0.9254
6662.00,0.9351
6661.00,0.9447
6660.00,0.9545
6659.00,0.9645
6658.00,0.9745
6657.00,0.9847
6656.00,0.9949
6655.00,1.0052
6654.00,1.0153
6653.00,1.0252
6652.00,1.0347
6651.00,1.0440
6650.00,1.0534
6649.00,1.0629
6648.00,1.0723
6647.00,1.0817
6646.00,1.0908
6645.00,1.0995
6644.00,1.1078
6643.00,1.1156
6642.00,1.1232
6641.00,1.1306
6640.00,1.1377
6639.00,1.1445
6638.00,1.1512
6637.00,1.1578
6636.00,1.1640
6635.00,1.1697
6634.00,1.1749
6633.00,1.1800
6632.00,1.1848
6631.00,1.1893
6630.00,1.1934
6629.00,1.1971
6628.00,1.2005
6627.00,1.2033
6626.00,1.2057
6625.00,1.2079
6624.00,1.2100
6623.00,1.2119
6622.00,1.2132
6621.00,1.2138
6620.00,1.2136
6619.00,1.2128
6618.00,1.2116
6617.00,1.2102
6616.00,1.2087
6615.00,1.2070
6614.00,1.2054
6613.00,1.2037
6612.00,1.2014
6611.00,1.1981
6610.00,1.1938
6609.00,1.1890
6608.00,1.1841
6607.00,1.1790
6606.00,1.1735
6605.00,1.1677
6604.00,1.1617
6603.00,1.1557
6602.00,1.1492
6601.00,1.1422
6600.00,1.1345
6599.00,1.1262
6598.00,1.1176
6597.00,1.1091
6596.00,1.1004
6595.00,1.0916
6594.00,1.0824
6593.00,1.0732
6592.00,1.0640
6591.00,1.0547
6590.00,1.0452
6589.00,1.0353
6588.00,1.0248
6587.00,1.0138
6586.00,1.0026
6585.00,0.9912
6584.00,0.9798
6583.00,0.9682
6582.00,0.9568
6581.00,0.9456
6580.00,0.9346
6579.00,0.9235
6578.00,0.9122
6577.00,0.9011
6576.00,0.8904
6575.00,0.8800
6574.00,0.8701
6573.00,0.8604
6572.00,0.8511
6571.00,0.8420
6570.00,0.8331
6569.00,0.8245
6568.00,0.8163
6567.00,0.8086
6566.00,0.8015
6565.00,0.7951
6564.00,0.7893
6563.00,0.7841
6562.00,0.7798
6561.00,0.7762
6560.00,0.7733
6559.00,0.7710
6558.00,0.7692
6557.00,0.7681
6556.00,0.7677
6555.00,0.7681
6554.00,0.7694
6553.00,0.7713
6552.00,0.7739
6551.00,0.7771
6550.00,0.7809
6549.00,0.7852
6548.00,0.7900
6547.00,0.7951
6546.00,0.8009
6545.00,0.8076
6544.00,0.8148
6543.00,0.8224
6542.00,0.8303
6541.00,0.8385
6540.00,0.8473
6539.00,0.8564
6538.00,0.8660
6537.00,0.8758
6536.00,0.8858
6535.00,0.8960
6534.00,0.9064
6533.00,0.9169
6532.00,0.9274
6531.00,0.9377
6530.00,0.9480
6529.00,0.9586
6528.00,0.9694
6527.00,0.9801
6526.00,0.9908
6525.00,1.0016
6524.00,1.0123
6523.00,1.0229
6522.00,1.0332
6521.00,1.0434
6520.00,1.0538
6519.00,1.0644
6518.00,1.0747
6517.00,1.0848
6516.00,1.0946
6515.00,1.1040
6514.00,1.1129
6513.00,1.1213
6512.00,1.1291
6511.00,1.1368
6510.00,1.1448
6509.00,1.1530
6508.00,1.1614
6507.00,1.1697
6506.00,1.1777
6505.00,1.1851
6504.00,1.1919
6503.00,1.1980
6502.00,1.2034
6501.00,1.2084
6500.00,1.2130
6499.00,1.2175
6498.00,1.2219
6497.00,1.2262
6496.00,1.2302
6495.00,1.2336
6494.00,1.2363
6493.00,1.2383
6492.00,1.2399
6491.00,1.2413
6490.00,1.2426
6489.00,1.2434
6488.00,1.2436
6487.00,1.2433
6486.00,1.2430
6485.00,1.2426
6484.00,1.2417
6483.00,1.2400
6482.00,1.2379
6481.00,1.2356
6480.00,1.2330
6479.00,1.2296
6478.00,1.2253
6477.00,1.2203
6476.00,1.2151
6475.00,1.2095
6474.00,1.2034
6473.00,1.1971
6472.00,1.1907
6471.00,1.1843
6470.00,1.1775
6469.00,1.1700
6468.00,1.1616
6467.00,1.1526
6466.00,1.1431
6465.00,1.1333
6464.00,1.1234
6463.00,1.1137
6462.00,1.1041
6461.00,1.0942
6460.00,1.0838
6459.00,1.0730
6458.00,1.0618
6457.00,1.0500
6456.00,1.0376
6455.00,1.0252
6454.00,1.0132
6453.00,1.0015
6452.00,0.9897
6451.00,0.9777
6450.00,0.9655
6449.00,0.9535
6448.00,0.9413
6447.00,0.9291
6446.00,0.9170
6445.00,0.9051
6444.00,0.8936
6443.00,0.8824
6442.00,0.8715
6441.00,0.8611
6440.00,0.8511
6439.00,0.8416
6438.00,0.8325
6437.00,0.8240
6436.00,0.8161
6435.00,0.8087
6434.00,0.8019
6433.00,0.7958
6432.00,0.7904
6431.00,0.7857
6430.00,0.7815
6429.00,0.7780
6428.00,0.7752
6427.00,0.7732
6426.00,0.7719
6425.00,0.7714
6424.00,0.7716
6423.00,0.7725
6422.00,0.7740
6421.00,0.7763
6420.00,0.7793
6419.00,0.7829
6418.00,0.7872
6417.00,0.7924
6416.00,0.7983
6415.00,0.8048
6414.00,0.8119
6413.00,0.8193
6412.00,0.8271
6411.00,0.8352
6410.00,0.8437
6409.00,0.8526
6408.00,0.8620
6407.00,0.8715
6406.00,0.8812
6405.00,0.8909
6404.00,0.9009
6403.00,0.9110
6402.00,0.9213
6401.00,0.9318
6400.00,0.9424
6399.00,0.9533
6398.00,0.9643
6397.00,0.9752
6396.00,0.9858
6395.00,0.9963
6394.00,1.0067
6393.00,1.0172
6392.00,1.0277
6391.00,1.0380
6390.00,1.0480
6389.00,1.0579
6388.00,1.0677
6387.00,1.0773
6386.00,1.0869
6385.00,1.0966
6384.00,1.1062
6383.00,1.1155
6382.00,1.1247
6381.00,1.1336
6380.00,1.1421
6379.00,1.1499
6378.00,1.1572
6377.00,1.1644
6376.00,1.1715
6375.00,1.1781
6374.00,1.1841
6373.00,1.1899
6372.00,1.1954
6371.00,1.2006
6370.00,1.2052
6369.00,1.2094
6368.00,1.2134
6367.00,1.2173
6366.00,1.2210
6365.00,1.2243
6364.00,1.2271
6363.00,1.2292
6362.00,1.2310
6361.00,1.2323
6360.00,1.2331
6359.00,1.2332
6358.00,1.2327
6357.00,1.2322
6356.00,1.2318
6355.00,1.2312
6354.00,1.2302
6353.00,1.2290
6352.00,1.2274
6351.00,1.2254
6350.00,1.2227
6349.00,1.2193
6348.00,1.2154
6347.00,1.2108
6346.00,1.2056
6345.00,1.2001
6344.00,1.1944
6343.00,1.1886
6342.00,1.1827
6341.00,1.1766
6340.00,1.1704
6339.00,1.1639
6338.00,1.1566
6337.00,1.1486
6336.00,1.1402
6335.00,1.1314
6334.00,1.1223
6333.00,1.1130
6332.00,1.1035
6331.00,1.0938
6330.00,1.0839
6329.00,1.0736
6328.00,1.0628
6327.00,1.0517
6326.00,1.0404
6325.00,1.0289
6324.00,1.0173
6323.00,1.0056
6322.00,0.9937
6321.00,0.9817
6320.00,0.9696
6319.00,0.9574
6318.00,0.9453
6317.00,0.9332
6316.00,0.9211
6315.00,0.9093
6314.00,0.8976
6313.00,0.8863
6312.00,0.8753
6311.00,0.8646
6310.00,0.8542
6309.00,0.8442
6308.00,0.8346
6307.00,0.8255
6306.00,0.8169
6305.00,0.8089
6304.00,0.8014
6303.00,0.7945
6302.00,0.7883
6301.00,0.7829
6300.00,0.7782
6299.00,0.7741
6298.00,0.7708
6297.00,0.7683
6296.00,0.7665
6295.00,0.7655
6294.00,0.7653
6293.00,0.7659
6292.00,0.7673
6291.00,0.7693
6290.00,0.7722
6289.00,0.7759
6288.00,0.7802
6287.00,0.7852
6286.00,0.7907
6285.00,0.7969
6284.00,0.8036
6283.00,0.8106
6282.00,0.8180
6281.00,0.8259
6280.00,0.8343
6279.00,0.8432
6278.00,0.8525
6277.00,0.8622
6276.00,0.8722
6275.00,0.8824
6274.00,0.8929
6273.00,0.9036
6272.00,0.9144
6271.00,0.9252
6270.00,0.9362
6269.00,0.9474
6268.00,0.9588
6267.00,0.9700
6266.00,0.9813
6265.00,0.9927
6264.00,1.0041
6263.00,1.0154
6262.00,1.0265
6261.00,1.0374
6260.00,1.0483
6259.00,1.0590
6258.00,1.0696
6257.00,1.0800
6256.00,1.0904
6255.00,1.1009
6254.00,1.1114
6253.00,1.1218
6252.00,1.1319
6251.00,1.1418
6250.00,1.1514
6249.00,1.1607
6248.00,1.1694
6247.00,1.1776
6246.00,1.1855
6245.00,1.1932
6244.00,1.2009
6243.00,1.2081
6242.00,1.2148
6241.00,1.2210
6240.00,1.2266
6239.00,1.2317
6238.00,1.2362
6237.00,1.2404
6236.00,1.2444
6235.00,1.2482
6234.00,1.2517
6233.00,1.2551
6232.00,1.2583
6231.00,1.2612
6230.00,1.2635
6229.00,1.2651
6228.00,1.2660
6227.00,1.2663
6226.00,1.2662
6225.00,1.2657
6224.00,1.2649
6223.00,1.2640
6222.00,1.2627
6221.00,1.2608
6220.00,1.2581
6219.00,1.2548
6218.00,1.2511
6217.00,1.2472
6216.00,1.2430
6215.00,1.2386
6214.00,1.2339
6213.00,1.2289
6212.00,1.2232
6211.00,1.2168
6210.00,1.2101
6209.00,1.2031
6208.00,1.1958
6207.00,1.1880
6206.00,1.1798
6205.00,1.1709
6204.00,1.1614
6203.00,1.1513
6202.00,1.1409
6201.00,1.1304
6200.00,1.1195
6199.00,1.1085
6198.00,1.0972
6197.00,1.0858
6196.00,1.0741
6195.00,1.0618
6194.00,1.0492
6193.00,1.0365
6192.00,1.0238
6191.00,1.0110
6190.00,0.9981
6189.00,0.9851
6188.00,0.9721
6187.00,0.9591
6186.00,0.9462
6185.00,0.9334
6184.00,0.9206
6183.00,0.9079
6182.00,0.8954
6181.00,0.8832
6180.00,0.8715
6179.00,0.8602
6178.00,0.8493
6177.00,0.8391
6176.00,0.8295
