Created as New Dataset,Sample 082 By Administrator Date Wednesday, November 24 2021
cm-1,A
7502.00,1.1915
7501.00,1.1868
7500.00,1.1823
7499.00,1.1777
7498.00,1.1732
7497.00,1.1688
7496.00,1.1644
7495.00,1.1599
7494.00,1.1553
7493.00,1.1507
7492.00,1.1461
7491.00,1.1412
7490.00,1.1360
7489.00,1.1304
7488.00,1.1239
7487.00,1.1162
7486.00,1.1075
7485.00,1.0987
7484.00,1.0904
7483.00,1.0825
7482.00,1.0746
7481.00,1.0659
7480.00,1.0563
7479.00,1.0464
7478.00,1.0367
7477.00,1.0273
7476.00,1.0178
7475.00,1.0078
7474.00,0.9971
7473.00,0.9865
7472.00,0.9765
7471.00,0.9671
7470.00,0.9574
7469.00,0.9472
7468.00,0.9365
7467.00,0.9258
7466.00,0.9153
7465.00,0.9051
7464.00,0.8950
7463.00,0.8850
7462.00,0.8749
7461.00,0.8649
7460.00,0.8551
7459.00,0.8459
7458.00,0.8373
7457.00,0.8293
7456.00,0.8218
7455.00,0.8147
7454.00,0.8079
7453.00,0.8017
7452.00,0.7961
7451.00,0.7912
7450.00,0.7869
7449.00,0.7831
7448.00,0.7796
7447.00,0.7768
7446.00,0.7746
7445.00,0.7733
7444.00,0.7728
7443.00,0.7727
7442.00,0.7729
7441.00,0.7735
7440.00,0.7748
7439.00,0.7770
7438.00,0.7799
7437.00,0.7834
7436.00,0.7875
7435.00,0.7922
7434.00,0.7971
7433.00,0.8024
7432.00,0.8081
7431.00,0.8143
7430.00,0.8211
7429.00,0.8283
7428.00,0.8358
7427.00,0.8438
7426.00,0.8522
7425.00,0.8609
7424.00,0.8697
7423.00,0.8785
7422.00,0.8875
7421.00,0.8964
7420.00,0.9051
7419.00,0.9135
7418.00,0.9222
7417.00,0.9313
7416.00,0.9404
7415.00,0.9491
7414.00,0.9574
7413.00,0.9659
7412.00,0.9750
7411.00,0.9843
7410.00,0.9934
7409.00,1.0019
7408.00,1.0103
7407.00,1.0187
7406.00,1.0270
7405.00,1.0350
7404.00,1.0428
7403.00,1.0504
7402.00,1.0575
7401.00,1.0641
7400.00,1.0698
7399.00,1.0747
7398.00,1.0788
7397.00,1.0827
7396.00,1.0871
7395.00,1.0918
7394.00,1.0961
7393.00,1.0996
7392.00,1.1024
7391.00,1.1051
7390.00,1.1071
7389.00,1.1080
7388.00,1.1082
7387.00,1.1086
7386.00,1.1097
7385.00,1.1118
7384.00,1.1145
7383.00,1.1168
7382.00,1.1182
7381.00,1.1186
7380.00,1.1189
7379.00,1.1194
7378.00,1.1198
7377.00,1.1189
7376.00,1.1164
7375.00,1.1124
7374.00,1.1075
7373.00,1.1022
7372.00,1.0965
7371.00,1.0905
7370.00,1.0843
7369.00,1.0783
7368.00,1.0729
7367.00,1.0687
7366.00,1.0652
7365.00,1.0617
7364.00,1.0576
7363.00,1.0534
7362.00,1.0501
7361.00,1.0482
7360.00,1.0470
7359.00,1.0453
7358.00,1.0424
7357.00,1.0385
7356.00,1.0343
7355.00,1.0306
7354.00,1.0274
7353.00,1.0241
7352.00,1.0199
7351.00,1.0151
7350.00,1.0095
7349.00,1.0029
7348.00,0.9948
7347.00,0.9856
7346.00,0.9760
7345.00,0.9671
7344.00,0.9590
7343.00,0.9515
7342.00,0.9444
7341.00,0.9371
7340.00,0.9292
7339.00,0.9204
7338.00,0.9106
7337.00,0.9003
7336.00,0.8898
7335.00,0.8796
7334.00,0.8700
7333.00,0.8613
7332.00,0.8531
7331.00,0.8452
7330.00,0.8373
7329.00,0.8295
7328.00,0.8221
7327.00,0.8149
7326.00,0.8077
7325.00,0.8005
7324.00,0.7937
7323.00,0.7877
7322.00,0.7827
7321.00,0.7782
7320.00,0.7742
7319.00,0.7706
7318.00,0.7677
7317.00,0.7657
7316.00,0.7645
7315.00,0.7638
7314.00,0.7635
7313.00,0.7634
7312.00,0.7640
7311.00,0.7653
7310.00,0.7672
7309.00,0.7694
7308.00,0.7719
7307.00,0.7749
7306.00,0.7788
7305.00,0.7837
7304.00,0.7893
7303.00,0.7952
7302.00,0.8014
7301.00,0.8081
7300.00,0.8155
7299.00,0.8234
7298.00,0.8315
7297.00,0.8393
7296.00,0.8473
7295.00,0.8557
7294.00,0.8647
7293.00,0.8740
7292.00,0.8835
7291.00,0.8932
7290.00,0.9031
7289.00,0.9130
7288.00,0.9230
7287.00,0.9332
7286.00,0.9436
7285.00,0.9538
7284.00,0.9638
7283.00,0.9737
7282.00,0.9839
7281.00,0.9945
7280.00,1.0049
7279.00,1.0149
7278.00,1.0245
7277.00,1.0341
7276.00,1.0437
7275.00,1.0530
7274.00,1.0616
7273.00,1.0696
7272.00,1.0779
7271.00,1.0867
7270.00,1.0956
7269.00,1.1043
7268.00,1.1130
7267.00,1.1218
7266.00,1.1300
7265.00,1.1371
7264.00,1.1433
7263.00,1.1494
7262.00,1.1554
7261.00,1.1611
7260.00,1.1663
7259.00,1.1717
7258.00,1.1779
7257.00,1.1840
7256.00,1.1887
7255.00,1.1915
7254.00,1.1931
7253.00,1.1944
7252.00,1.1955
7251.00,1.1962
7250.00,1.1964
7249.00,1.1964
7248.00,1.1965
7247.00,1.1969
7246.00,1.1976
7245.00,1.1982
7244.00,1.1982
7243.00,1.1973
7242.00,1.1962
7241.00,1.1953
7240.00,1.1944
7239.00,1.1925
7238.00,1.1892
7237.00,1.1849
7236.00,1.1804
7235.00,1.1758
7234.00,1.1708
7233.00,1.1650
7232.00,1.1586
7231.00,1.1523
7230.00,1.1462
7229.00,1.1404
7228.00,1.1344
7227.00,1.1279
7226.00,1.1210
7225.00,1.1138
7224.00,1.1064
7223.00,1.0985
7222.00,1.0896
7221.00,1.0798
7220.00,1.0695
7219.00,1.0592
7218.00,1.0492
7217.00,1.0396
7216.00,1.0300
7215.00,1.0201
7214.00,1.0098
7213.00,0.9994
7212.00,0.9892
7211.00,0.9792
7210.00,0.9688
7209.00,0.9579
7208.00,0.9468
7207.00,0.9362
7206.00,0.9261
7205.00,0.9160
7204.00,0.9055
7203.00,0.8946
7202.00,0.8840
7201.00,0.8740
7200.00,0.8644
7199.00,0.8549
7198.00,0.8455
7197.00,0.8366
7196.00,0.8284
7195.00,0.8209
7194.00,0.8138
7193.00,0.8072
7192.00,0.8011
7191.00,0.7954
7190.00,0.7901
7189.00,0.7853
7188.00,0.7811
7187.00,0.7775
7186.00,0.7745
7185.00,0.7721
7184.00,0.7704
7183.00,0.7697
7182.00,0.7700
7181.00,0.7711
7180.00,0.7727
7179.00,0.7747
7178.00,0.7775
7177.00,0.7807
7176.00,0.7845
7175.00,0.7885
7174.00,0.7931
7173.00,0.7983
7172.00,0.8041
7171.00,0.8103
7170.00,0.8171
7169.00,0.8245
7168.00,0.8325
7167.00,0.8406
7166.00,0.8485
7165.00,0.8565
7164.00,0.8650
7163.00,0.8741
7162.00,0.8832
7161.00,0.8922
7160.00,0.9012
7159.00,0.9107
7158.00,0.9204
7157.00,0.9302
7156.00,0.9401
7155.00,0.9503
7154.00,0.9609
7153.00,0.9718
7152.00,0.9827
7151.00,0.9932
7150.00,1.0035
7149.00,1.0132
7148.00,1.0223
7147.00,1.0310
7146.00,1.0397
7145.00,1.0485
7144.00,1.0574
7143.00,1.0663
7142.00,1.0751
7141.00,1.0836
7140.00,1.0917
7139.00,1.0995
7138.00,1.1067
7137.00,1.1134
7136.00,1.1200
7135.00,1.1266
7134.00,1.1332
7133.00,1.1394
7132.00,1.1449
7131.00,1.1499
7130.00,1.1547
7129.00,1.1591
7128.00,1.1627
7127.00,1.1654
7126.00,1.1677
7125.00,1.1701
7124.00,1.1729
7123.00,1.1757
7122.00,1.1779
7121.00,1.1795
7120.00,1.1810
7119.00,1.1826
7118.00,1.1840
7117.00,1.1848
7116.00,1.1849
7115.00,1.1844
7114.00,1.1838
7113.00,1.1828
7112.00,1.1813
7111.00,1.1793
7110.00,1.1767
7109.00,1.1738
7108.00,1.1707
7107.00,1.1675
7106.00,1.1641
7105.00,1.1604
7104.00,1.1563
7103.00,1.1518
7102.00,1.1470
7101.00,1.1416
7100.00,1.1360
7099.00,1.1301
7098.00,1.1241
7097.00,1.1175
7096.00,1.1103
7095.00,1.1028
7094.00,1.0950
7093.00,1.0866
7092.00,1.0777
7091.00,1.0686
7090.00,1.0596
7089.00,1.0508
7088.00,1.0420
7087.00,1.0330
7086.00,1.0238
7085.00,1.0145
7084.00,1.0048
7083.00,0.9948
7082.00,0.9845
7081.00,0.9742
7080.00,0.9639
7079.00,0.9534
7078.00,0.9428
7077.00,0.9321
7076.00,0.9213
7075.00,0.9107
7074.00,0.9000
7073.00,0.8894
7072.00,0.8791
7071.00,0.8693
7070.00,0.8599
7069.00,0.8508
7068.00,0.8417
7067.00,0.8331
7066.00,0.8251
7065.00,0.8177
7064.00,0.8107
7063.00,0.8039
7062.00,0.7973
7061.00,0.7913
7060.00,0.7859
7059.00,0.7811
7058.00,0.7767
7057.00,0.7727
7056.00,0.7694
7055.00,0.7669
7054.00,0.7652
7053.00,0.7642
7052.00,0.7638
7051.00,0.7642
7050.00,0.7654
7049.00,0.7675
7048.00,0.7702
7047.00,0.7735
7046.00,0.7775
7045.00,0.7818
7044.00,0.7865
7043.00,0.7915
7042.00,0.7973
7041.00,0.8038
7040.00,0.8108
7039.00,0.8179
7038.00,0.8255
7037.00,0.8338
7036.00,0.8427
7035.00,0.8518
7034.00,0.8611
7033.00,0.8707
7032.00,0.8807
7031.00,0.8912
7030.00,0.9018
7029.00,0.9125
7028.00,0.9230
7027.00,0.9331
7026.00,0.9431
7025.00,0.9533
7024.00,0.9637
7023.00,0.9742
7022.00,0.9846
7021.00,0.9950
7020.00,1.0055
7019.00,1.0160
7018.00,1.0265
7017.00,1.0367
7016.00,1.0463
7015.00,1.0558
7014.00,1.0656
7013.00,1.0759
7012.00,1.0863
7011.00,1.0961
7010.00,1.1049
7009.00,1.1131
7008.00,1.1210
7007.00,1.1288
7006.00,1.1361
7005.00,1.1432
7004.00,1.1501
7003.00,1.1573
7002.00,1.1643
7001.00,1.1706
7000.00,1.1759
6999.00,1.1806
6998.00,1.1853
6997.00,1.1901
6996.00,1.1948
6995.00,1.1991
6994.00,1.2030
6993.00,1.2065
6992.00,1.2096
6991.00,1.2120
6990.00,1.2135
6989.00,1.2143
6988.00,1.2146
6987.00,1.2147
6986.00,1.2147
6985.00,1.2149
6984.00,1.2149
6983.00,1.2146
6982.00,1.2137
6981.00,1.2126
6980.00,1.2111
6979.00,1.2090
6978.00,1.2065
6977.00,1.2035
6976.00,1.2001
6975.00,1.1962
6974.00,1.1918
6973.00,1.1869
6972.00,1.1816
6971.00,1.1760
6970.00,1.1699
6969.00,1.1634
6968.00,1.1565
6967.00,1.1495
6966.00,1.1424
6965.00,1.1353
6964.00,1.1277
6963.00,1.1193
6962.00,1.1104
6961.00,1.1013
6960.00,1.0922
6959.00,1.0826
6958.00,1.0723
6957.00,1.0615
6956.00,1.0509
6955.00,1.0405
6954.00,1.0300
6953.00,1.0190
6952.00,1.0077
6951.00,0.9965
6950.00,0.9853
6949.00,0.9739
6948.00,0.9624
6947.00,0.9508
6946.00,0.9395
6945.00,0.9285
6944.00,0.9175
6943.00,0.9067
6942.00,0.8960
6941.00,0.8855
6940.00,0.8752
6939.00,0.8650
6938.00,0.8552
6937.00,0.8459
6936.00,0.8368
6935.00,0.8280
6934.00,0.8197
6933.00,0.8119
6932.00,0.8047
6931.00,0.7980
6930.00,0.7919
6929.00,0.7866
6928.00,0.7821
6927.00,0.7782
6926.00,0.7747
6925.00,0.7718
6924.00,0.7695
6923.00,0.7677
6922.00,0.7667
6921.00,0.7665
6920.00,0.7670
6919.00,0.7684
6918.00,0.7705
6917.00,0.7734
6916.00,0.7770
6915.00,0.7811
6914.00,0.7856
6913.00,0.7905
6912.00,0.7961
6911.00,0.8024
6910.00,0.8094
6909.00,0.8169
6908.00,0.8251
6907.00,0.8336
6906.00,0.8426
6905.00,0.8518
6904.00,0.8612
6903.00,0.8704
6902.00,0.8797
6901.00,0.8890
6900.00,0.8987
6899.00,0.9088
6898.00,0.9194
6897.00,0.9304
6896.00,0.9414
6895.00,0.9523
6894.00,0.9631
6893.00,0.9738
6892.00,0.9846
6891.00,0.9952
6890.00,1.0058
6889.00,1.0164
6888.00,1.0270
6887.00,1.0375
6886.00,1.0477
6885.00,1.0575
6884.00,1.0667
6883.00,1.0755
6882.00,1.0843
6881.00,1.0931
6880.00,1.1016
6879.00,1.1098
6878.00,1.1178
6877.00,1.1257
6876.00,1.1334
6875.00,1.1407
6874.00,1.1476
6873.00,1.1545
6872.00,1.1609
6871.00,1.1667
6870.00,1.1718
6869.00,1.1767
6868.00,1.1816
6867.00,1.1863
6866.00,1.1906
6865.00,1.1944
6864.00,1.1979
6863.00,1.2010
6862.00,1.2035
6861.00,1.2052
6860.00,1.2061
6859.00,1.2069
6858.00,1.2078
6857.00,1.2086
6856.00,1.2090
6855.00,1.2091
6854.00,1.2088
6853.00,1.2086
6852.00,1.2079
6851.00,1.2062
6850.00,1.2035
6849.00,1.2002
6848.00,1.1968
6847.00,1.1934
6846.00,1.1900
6845.00,1.1864
6844.00,1.1829
6843.00,1.1792
6842.00,1.1753
6841.00,1.1706
6840.00,1.1649
6839.00,1.1582
6838.00,1.1505
6837.00,1.1427
6836.00,1.1351
6835.00,1.1278
6834.00,1.1204
6833.00,1.1127
6832.00,1.1047
6831.00,1.0964
6830.00,1.0878
6829.00,1.0787
6828.00,1.0690
6827.00,1.0589
6826.00,1.0488
6825.00,1.0386
6824.00,1.0283
6823.00,1.0177
6822.00,1.0066
6821.00,0.9953
6820.00,0.9840
6819.00,0.9726
6818.00,0.9611
6817.00,0.9496
6816.00,0.9381
6815.00,0.9267
6814.00,0.9155
6813.00,0.9046
6812.00,0.8938
6811.00,0.8832
6810.00,0.8728
6809.00,0.8626
6808.00,0.8527
6807.00,0.8431
6806.00,0.8338
6805.00,0.8249
6804.00,0.8164
6803.00,0.8084
6802.00,0.8009
6801.00,0.7939
6800.00,0.7874
6799.00,0.7816
6798.00,0.7764
6797.00,0.7719
6796.00,0.7680
6795.00,0.7648
6794.00,0.7624
6793.00,0.7607
6792.00,0.7598
6791.00,0.7595
6790.00,0.7598
6789.00,0.7610
6788.00,0.7628
6787.00,0.7651
6786.00,0.7679
6785.00,0.7715
6784.00,0.7760
6783.00,0.7813
6782.00,0.7872
6781.00,0.7938
6780.00,0.8009
6779.00,0.8086
6778.00,0.8167
6777.00,0.8252
6776.00,0.8339
6775.00,0.8428
6774.00,0.8519
6773.00,0.8613
6772.00,0.8710
6771.00,0.8811
6770.00,0.8916
6769.00,0.9023
6768.00,0.9131
6767.00,0.9241
6766.00,0.9353
6765.00,0.9466
6764.00,0.9578
6763.00,0.9687
6762.00,0.9796
6761.00,0.9906
6760.00,1.0017
6759.00,1.0129
6758.00,1.0240
6757.00,1.0352
6756.00,1.0464
6755.00,1.0574
6754.00,1.0680
6753.00,1.0780
6752.00,1.0875
6751.00,1.0966
6750.00,1.1054
6749.00,1.1140
6748.00,1.1225
6747.00,1.1310
6746.00,1.1394
6745.00,1.1474
6744.00,1.1551
6743.00,1.1625
6742.00,1.1697
6741.00,1.1766
6740.00,1.1831
6739.00,1.1893
6738.00,1.1949
6737.00,1.1997
6736.00,1.2037
6735.00,1.2074
6734.00,1.2110
6733.00,1.2145
6732.00,1.2177
6731.00,1.2205
6730.00,1.2229
6729.00,1.2248
6728.00,1.2263
6727.00,1.2276
6726.00,1.2288
6725.00,1.2299
6724.00,1.2305
6723.00,1.2307
6722.00,1.2302
6721.00,1.2288
6720.00,1.2265
6719.00,1.2241
6718.00,1.2217
6717.00,1.2193
6716.00,1.2166
6715.00,1.2135
6714.00,1.2098
6713.00,1.2053
6712.00,1.1998
6711.00,1.1936
6710.00,1.1872
6709.00,1.1806
6708.00,1.1737
6707.00,1.1666
6706.00,1.1594
6705.00,1.1520
6704.00,1.1439
6703.00,1.1353
6702.00,1.1266
6701.00,1.1179
6700.00,1.1090
6699.00,1.0996
6698.00,1.0896
6697.00,1.0794
6696.00,1.0688
6695.00,1.0578
6694.00,1.0467
6693.00,1.0357
6692.00,1.0248
6691.00,1.0141
6690.00,1.0032
6689.00,0.9919
6688.00,0.9799
6687.00,0.9675
6686.00,0.9552
6685.00,0.9432
6684.00,0.9313
6683.00,0.9193
6682.00,0.9075
6681.00,0.8963
6680.00,0.8856
6679.00,0.8749
6678.00,0.8642
6677.00,0.8538
6676.00,0.8440
6675.00,0.8347
6674.00,0.8259
6673.00,0.8174
6672.00,0.8093
6671.00,0.8016
6670.00,0.7945
6669.00,0.7879
6668.00,0.7820
6667.00,0.7768
6666.00,0.7724
6665.00,0.7689
6664.00,0.7662
6663.00,0.7642
6662.00,0.7629
6661.00,0.7622
6660.00,0.7621
6659.00,0.7627
6658.00,0.7639
6657.00,0.7659
6656.00,0.7689
6655.00,0.7725
6654.00,0.7769
6653.00,0.7819
6652.00,0.7876
6651.00,0.7938
6650.00,0.8006
6649.00,0.8080
6648.00,0.8160
6647.00,0.8245
6646.00,0.8333
6645.00,0.8426
6644.00,0.8521
6643.00,0.8619
6642.00,0.8718
6641.00,0.8818
6640.00,0.8921
6639.00,0.9028
6638.00,0.9139
6637.00,0.9254
6636.00,0.9369
6635.00,0.9483
6634.00,0.9595
6633.00,0.9707
6632.00,0.9818
6631.00,0.9928
6630.00,1.0034
6629.00,1.0139
6628.00,1.0245
6627.00,1.0351
6626.00,1.0459
6625.00,1.0568
6624.00,1.0677
6623.00,1.0785
6622.00,1.0890
6621.00,1.0990
6620.00,1.1084
6619.00,1.1171
6618.00,1.1253
6617.00,1.1332
6616.00,1.1409
6615.00,1.1484
6614.00,1.1556
6613.00,1.1623
6612.00,1.1687
6611.00,1.1748
6610.00,1.1807
6609.00,1.1864
6608.00,1.1916
6607.00,1.1963
6606.00,1.2006
6605.00,1.2046
6604.00,1.2082
6603.00,1.2113
6602.00,1.2139
6601.00,1.2160
6600.00,1.2179
6599.00,1.2194
6598.00,1.2206
6597.00,1.2214
6596.00,1.2220
6595.00,1.2225
6594.00,1.2228
6593.00,1.2227
6592.00,1.2218
6591.00,1.2200
6590.00,1.2174
6589.00,1.2144
6588.00,1.2113
6587.00,1.2077
6586.00,1.2038
6585.00,1.1995
6584.00,1.1953
6583.00,1.1912
6582.00,1.1873
6581.00,1.1830
6580.00,1.1779
6579.00,1.1720
6578.00,1.1653
6577.00,1.1581
6576.00,1.1505
6575.00,1.1424
6574.00,1.1341
6573.00,1.1260
6572.00,1.1183
6571.00,1.1105
6570.00,1.1019
6569.00,1.0925
6568.00,1.0825
6567.00,1.0724
6566.00,1.0622
6565.00,1.0519
6564.00,1.0415
6563.00,1.0310
6562.00,1.0205
6561.00,1.0097
6560.00,0.9987
6559.00,0.9873
6558.00,0.9757
6557.00,0.9639
6556.00,0.9521
6555.00,0.9404
6554.00,0.9287
6553.00,0.9171
6552.00,0.9056
6551.00,0.8944
6550.00,0.8834
6549.00,0.8725
6548.00,0.8616
6547.00,0.8510
6546.00,0.8408
6545.00,0.8309
6544.00,0.8215
6543.00,0.8126
6542.00,0.8045
6541.00,0.7970
6540.00,0.7901
6539.00,0.7836
6538.00,0.7777
6537.00,0.7725
6536.00,0.7678
6535.00,0.7638
6534.00,0.7604
6533.00,0.7579
6532.00,0.7562
6531.00,0.7553
6530.00,0.7551
6529.00,0.7558
6528.00,0.7572
6527.00,0.7595
6526.00,0.7624
6525.00,0.7660
6524.00,0.7702
6523.00,0.7750
6522.00,0.7806
6521.00,0.7868
6520.00,0.7936
6519.00,0.8009
6518.00,0.8088
6517.00,0.8174
6516.00,0.8264
6515.00,0.8358
6514.00,0.8455
6513.00,0.8556
6512.00,0.8663
6511.00,0.8772
6510.00,0.8883
6509.00,0.8996
6508.00,0.9110
6507.00,0.9228
6506.00,0.9346
6505.00,0.9463
6504.00,0.9579
6503.00,0.9695
6502.00,0.9812
6501.00,0.9931
6500.00,1.0050
6499.00,1.0167
6498.00,1.0285
6497.00,1.0401
6496.00,1.0516
6495.00,1.0627
6494.00,1.0736
6493.00,1.0841
6492.00,1.0946
6491.00,1.1051
6490.00,1.1156
6489.00,1.1259
6488.00,1.1355
6487.00,1.1447
6486.00,1.1538
6485.00,1.1625
6484.00,1.1707
6483.00,1.1785
6482.00,1.1862
6481.00,1.1938
6480.00,1.2009
6479.00,1.2071
6478.00,1.2126
6477.00,1.2175
6476.00,1.2221
6475.00,1.2265
6474.00,1.2309
6473.00,1.2353
6472.00,1.2393
6471.00,1.2427
6470.00,1.2455
6469.00,1.2480
6468.00,1.2498
6467.00,1.2510
6466.00,1.2518
6465.00,1.2526
6464.00,1.2534
6463.00,1.2538
6462.00,1.2534
6461.00,1.2521
6460.00,1.2501
6459.00,1.2480
6458.00,1.2459
6457.00,1.2436
6456.00,1.2407
6455.00,1.2375
6454.00,1.2343
6453.00,1.2311
6452.00,1.2273
6451.00,1.2222
6450.00,1.2162
6449.00,1.2099
6448.00,1.2035
6447.00,1.1965
6446.00,1.1888
6445.00,1.1807
6444.00,1.1726
6443.00,1.1643
6442.00,1.1557
6441.00,1.1466
6440.00,1.1373
6439.00,1.1277
6438.00,1.1179
6437.00,1.1078
6436.00,1.0974
6435.00,1.0864
6434.00,1.0750
6433.00,1.0633
6432.00,1.0514
6431.00,1.0394
6430.00,1.0273
6429.00,1.0151
6428.00,1.0027
6427.00,0.9900
6426.00,0.9771
6425.00,0.9643
6424.00,0.9514
6423.00,0.9385
6422.00,0.9258
6421.00,0.9136
6420.00,0.9016
6419.00,0.8898
6418.00,0.8782
6417.00,0.8669
6416.00,0.8560
6415.00,0.8456
6414.00,0.8356
6413.00,0.8261
6412.00,0.8169
6411.00,0.8082
6410.00,0.8001
6409.00,0.7926
6408.00,0.7857
6407.00,0.7793
6406.00,0.7737
6405.00,0.7690
6404.00,0.7652
6403.00,0.7621
6402.00,0.7597
6401.00,0.7582
6400.00,0.7575
6399.00,0.7576
6398.00,0.7585
6397.00,0.7601
6396.00,0.7625
6395.00,0.7657
6394.00,0.7699
6393.00,0.7747
6392.00,0.7802
6391.00,0.7863
6390.00,0.7931
6389.00,0.8005
6388.00,0.8084
6387.00,0.8168
6386.00,0.8258
6385.00,0.8354
6384.00,0.8455
6383.00,0.8559
6382.00,0.8665
6381.00,0.8775
6380.00,0.8887
6379.00,0.8999
6378.00,0.9112
6377.00,0.9226
6376.00,0.9343
6375.00,0.9463
6374.00,0.9584
6373.00,0.9705
6372.00,0.9825
6371.00,0.9944
6370.00,1.0061
6369.00,1.0175
6368.00,1.0289
6367.00,1.0402
6366.00,1.0517
6365.00,1.0632
6364.00,1.0746
6363.00,1.0857
6362.00,1.0964
6361.00,1.1068
6360.00,1.1167
6359.00,1.1261
6358.00,1.1350
6357.00,1.1436
6356.00,1.1521
6355.00,1.1604
6354.00,1.1683
6353.00,1.1758
6352.00,1.1828
6351.00,1.1895
6350.00,1.1958
6349.00,1.2019
6348.00,1.2077
6347.00,1.2131
6346.00,1.2180
6345.00,1.2224
6344.00,1.2261
6343.00,1.2294
6342.00,1.2323
6341.00,1.2351
6340.00,1.2379
6339.00,1.2405
6338.00,1.2426
6337.00,1.2441
6336.00,1.2450
6335.00,1.2453
6334.00,1.2450
6333.00,1.2442
6332.00,1.2428
6331.00,1.2413
6330.00,1.2395
6329.00,1.2376
6328.00,1.2354
6327.00,1.2327
6326.00,1.2296
6325.00,1.2260
6324.00,1.2218
6323.00,1.2174
6322.00,1.2128
6321.00,1.2081
6320.00,1.2031
6319.00,1.1976
6318.00,1.1915
6317.00,1.1848
6316.00,1.1776
6315.00,1.1701
6314.00,1.1626
6313.00,1.1549
6312.00,1.1467
6311.00,1.1382
6310.00,1.1295
6309.00,1.1206
6308.00,1.1113
6307.00,1.1014
6306.00,1.0911
6305.00,1.0807
6304.00,1.0699
6303.00,1.0586
6302.00,1.0470
6301.00,1.0352
6300.00,1.0236
6299.00,1.0119
6298.00,1.0001
6297.00,0.9879
6296.00,0.9755
6295.00,0.9630
6294.00,0.9506
6293.00,0.9383
6292.00,0.9259
6291.00,0.9135
6290.00,0.9012
6289.00,0.8892
6288.00,0.8775
6287.00,0.8658
6286.00,0.8545
6285.00,0.8437
6284.00,0.8335
6283.00,0.8237
6282.00,0.8142
6281.00,0.8053
6280.00,0.7968
6279.00,0.7889
6278.00,0.7817
6277.00,0.7753
6276.00,0.7697
6275.00,0.7649
6274.00,0.7608
6273.00,0.7576
6272.00,0.7550
6271.00,0.7530
6270.00,0.7519
6269.00,0.7517
6268.00,0.7525
6267.00,0.7542
6266.00,0.7568
6265.00,0.7602
6264.00,0.7645
6263.00,0.7695
6262.00,0.7751
6261.00,0.7813
6260.00,0.7882
6259.00,0.7957
6258.00,0.8038
6257.00,0.8125
6256.00,0.8217
6255.00,0.8314
6254.00,0.8416
6253.00,0.8523
6252.00,0.8632
6251.00,0.8742
6250.00,0.8854
6249.00,0.8971
6248.00,0.9091
6247.00,0.9212
6246.00,0.9333
6245.00,0.9456
6244.00,0.9581
6243.00,0.9708
6242.00,0.9835
6241.00,0.9963
6240.00,1.0091
6239.00,1.0218
6238.00,1.0342
6237.00,1.0461
6236.00,1.0577
6235.00,1.0691
6234.00,1.0804
6233.00,1.0918
6232.00,1.1033
6231.00,1.1146
6230.00,1.1255
6229.00,1.1362
6228.00,1.1465
6227.00,1.1564
6226.00,1.1656
6225.00,1.1742
6224.00,1.1825
6223.00,1.1906
6222.00,1.1983
6221.00,1.2058
6220.00,1.2134
6219.00,1.2210
6218.00,1.2283
6217.00,1.2349
6216.00,1.2410
6215.00,1.2465
6214.00,1.2515
6213.00,1.2558
6212.00,1.2595
6211.00,1.2630
6210.00,1.2661
6209.00,1.2688
6208.00,1.2711
6207.00,1.2733
6206.00,1.2752
6205.00,1.2763
6204.00,1.2767
6203.00,1.2767
6202.00,1.2763
6201.00,1.2755
6200.00,1.2740
6199.00,1.2721
6198.00,1.2701
6197.00,1.2680
6196.00,1.2653
6195.00,1.2619
6194.00,1.2580
6193.00,1.2537
6192.00,1.2492
6191.00,1.2445
6190.00,1.2393
6189.00,1.2336
6188.00,1.2276
6187.00,1.2213
6186.00,1.2146
6185.00,1.2073
6184.00,1.1991
6183.00,1.1906
6182.00,1.1817
6181.00,1.1726
6180.00,1.1630
6179.00,1.1532
6178.00,1.1433
6177.00,1.1333
6176.00,1.1229
