Created as New Dataset,Sample 083 By Administrator Date Wednesday, November 24 2021
cm-1,A
7502.00,1.0832
7501.00,1.0762
7500.00,1.0685
7499.00,1.0601
7498.00,1.0511
7497.00,1.0417
7496.00,1.0321
7495.00,1.0224
7494.00,1.0122
7493.00,1.0016
7492.00,0.9912
7491.00,0.9813
7490.00,0.9719
7489.00,0.9622
7488.00,0.9520
7487.00,0.9414
7486.00,0.9310
7485.00,0.9209
7484.00,0.9113
7483.00,0.9021
7482.00,0.8928
7481.00,0.8835
7480.00,0.8743
7479.00,0.8656
7478.00,0.8574
7477.00,0.8493
7476.00,0.8412
7475.00,0.8334
7474.00,0.8260
7473.00,0.8193
7472.00,0.8131
7471.00,0.8076
7470.00,0.8025
7469.00,0.7978
7468.00,0.7934
7467.00,0.7895
7466.00,0.7862
7465.00,0.7837
7464.00,0.7816
7463.00,0.7798
7462.00,0.7786
7461.00,0.7781
7460.00,0.7785
7459.00,0.7796
7458.00,0.7811
7457.00,0.7832
7456.00,0.7858
7455.00,0.7891
7454.00,0.7929
7453.00,0.7971
7452.00,0.8017
7451.00,0.8069
7450.00,0.8126
7449.00,0.8186
7448.00,0.8248
7447.00,0.8313
7446.00,0.8384
7445.00,0.8460
7444.00,0.8538
7443.00,0.8614
7442.00,0.8686
7441.00,0.8761
7440.00,0.8841
7439.00,0.8925
7438.00,0.9012
7437.00,0.9102
7436.00,0.9198
7435.00,0.9299
7434.00,0.9398
7433.00,0.9488
7432.00,0.9570
7431.00,0.9650
7430.00,0.9732
7429.00,0.9816
7428.00,0.9900
7427.00,0.9987
7426.00,1.0079
7425.00,1.0173
7424.00,1.0263
7423.00,1.0346
7422.00,1.0421
7421.00,1.0489
7420.00,1.0547
7419.00,1.0597
7418.00,1.0642
7417.00,1.0688
7416.00,1.0736
7415.00,1.0778
7414.00,1.0811
7413.00,1.0838
7412.00,1.0865
7411.00,1.0894
7410.00,1.0925
7409.00,1.0952
7408.00,1.0972
7407.00,1.0988
7406.00,1.1004
7405.00,1.1022
7404.00,1.1036
7403.00,1.1039
7402.00,1.1031
7401.00,1.1018
7400.00,1.1005
7399.00,1.0986
7398.00,1.0956
7397.00,1.0915
7396.00,1.0870
7395.00,1.0830
7394.00,1.0795
7393.00,1.0760
7392.00,1.0726
7391.00,1.0696
7390.00,1.0672
7389.00,1.0650
7388.00,1.0624
7387.00,1.0592
7386.00,1.0562
7385.00,1.0545
7384.00,1.0541
7383.00,1.0538
7382.00,1.0527
7381.00,1.0513
7380.00,1.0506
7379.00,1.0505
7378.00,1.0494
7377.00,1.0459
7376.00,1.0403
7375.00,1.0341
7374.00,1.0280
7373.00,1.0216
7372.00,1.0142
7371.00,1.0063
7370.00,0.9987
7369.00,0.9921
7368.00,0.9864
7367.00,0.9812
7366.00,0.9758
7365.00,0.9698
7364.00,0.9629
7363.00,0.9553
7362.00,0.9478
7361.00,0.9405
7360.00,0.9335
7359.00,0.9262
7358.00,0.9183
7357.00,0.9101
7356.00,0.9022
7355.00,0.8947
7354.00,0.8874
7353.00,0.8800
7352.00,0.8722
7351.00,0.8646
7350.00,0.8572
7349.00,0.8499
7348.00,0.8422
7347.00,0.8339
7346.00,0.8255
7345.00,0.8177
7344.00,0.8108
7343.00,0.8048
7342.00,0.7992
7341.00,0.7940
7340.00,0.7891
7339.00,0.7847
7338.00,0.7807
7337.00,0.7769
7336.00,0.7732
7335.00,0.7699
7334.00,0.7673
7333.00,0.7655
7332.00,0.7648
7331.00,0.7649
7330.00,0.7655
7329.00,0.7667
7328.00,0.7685
7327.00,0.7708
7326.00,0.7736
7325.00,0.7770
7324.00,0.7809
7323.00,0.7854
7322.00,0.7903
7321.00,0.7955
7320.00,0.8011
7319.00,0.8073
7318.00,0.8143
7317.00,0.8216
7316.00,0.8292
7315.00,0.8372
7314.00,0.8458
7313.00,0.8550
7312.00,0.8645
7311.00,0.8738
7310.00,0.8828
7309.00,0.8918
7308.00,0.9011
7307.00,0.9105
7306.00,0.9201
7305.00,0.9298
7304.00,0.9399
7303.00,0.9504
7302.00,0.9606
7301.00,0.9702
7300.00,0.9795
7299.00,0.9889
7298.00,0.9987
7297.00,1.0084
7296.00,1.0178
7295.00,1.0270
7294.00,1.0360
7293.00,1.0450
7292.00,1.0538
7291.00,1.0623
7290.00,1.0704
7289.00,1.0784
7288.00,1.0867
7287.00,1.0953
7286.00,1.1040
7285.00,1.1121
7284.00,1.1194
7283.00,1.1261
7282.00,1.1326
7281.00,1.1390
7280.00,1.1450
7279.00,1.1505
7278.00,1.1556
7277.00,1.1604
7276.00,1.1649
7275.00,1.1688
7274.00,1.1720
7273.00,1.1746
7272.00,1.1770
7271.00,1.1797
7270.00,1.1828
7269.00,1.1862
7268.00,1.1892
7267.00,1.1913
7266.00,1.1921
7265.00,1.1921
7264.00,1.1917
7263.00,1.1910
7262.00,1.1898
7261.00,1.1882
7260.00,1.1865
7259.00,1.1852
7258.00,1.1841
7257.00,1.1826
7256.00,1.1803
7255.00,1.1775
7254.00,1.1749
7253.00,1.1723
7252.00,1.1692
7251.00,1.1651
7250.00,1.1600
7249.00,1.1543
7248.00,1.1481
7247.00,1.1416
7246.00,1.1346
7245.00,1.1271
7244.00,1.1193
7243.00,1.1115
7242.00,1.1036
7241.00,1.0954
7240.00,1.0866
7239.00,1.0775
7238.00,1.0682
7237.00,1.0590
7236.00,1.0498
7235.00,1.0405
7234.00,1.0309
7233.00,1.0212
7232.00,1.0112
7231.00,1.0009
7230.00,0.9905
7229.00,0.9800
7228.00,0.9693
7227.00,0.9584
7226.00,0.9475
7225.00,0.9367
7224.00,0.9262
7223.00,0.9160
7222.00,0.9060
7221.00,0.8963
7220.00,0.8872
7219.00,0.8783
7218.00,0.8696
7217.00,0.8608
7216.00,0.8521
7215.00,0.8438
7214.00,0.8358
7213.00,0.8282
7212.00,0.8208
7211.00,0.8139
7210.00,0.8076
7209.00,0.8019
7208.00,0.7967
7207.00,0.7920
7206.00,0.7879
7205.00,0.7843
7204.00,0.7814
7203.00,0.7792
7202.00,0.7776
7201.00,0.7766
7200.00,0.7761
7199.00,0.7761
7198.00,0.7768
7197.00,0.7782
7196.00,0.7802
7195.00,0.7827
7194.00,0.7859
7193.00,0.7899
7192.00,0.7944
7191.00,0.7992
7190.00,0.8043
7189.00,0.8099
7188.00,0.8161
7187.00,0.8229
7186.00,0.8301
7185.00,0.8375
7184.00,0.8453
7183.00,0.8535
7182.00,0.8619
7181.00,0.8705
7180.00,0.8792
7179.00,0.8883
7178.00,0.8975
7177.00,0.9071
7176.00,0.9170
7175.00,0.9272
7174.00,0.9374
7173.00,0.9473
7172.00,0.9568
7171.00,0.9661
7170.00,0.9754
7169.00,0.9843
7168.00,0.9928
7167.00,1.0013
7166.00,1.0101
7165.00,1.0190
7164.00,1.0278
7163.00,1.0367
7162.00,1.0456
7161.00,1.0546
7160.00,1.0630
7159.00,1.0710
7158.00,1.0786
7157.00,1.0862
7156.00,1.0934
7155.00,1.1000
7154.00,1.1061
7153.00,1.1120
7152.00,1.1177
7151.00,1.1233
7150.00,1.1286
7149.00,1.1338
7148.00,1.1385
7147.00,1.1428
7146.00,1.1470
7145.00,1.1516
7144.00,1.1564
7143.00,1.1607
7142.00,1.1637
7141.00,1.1655
7140.00,1.1671
7139.00,1.1691
7138.00,1.1711
7137.00,1.1725
7136.00,1.1733
7135.00,1.1739
7134.00,1.1749
7133.00,1.1757
7132.00,1.1757
7131.00,1.1746
7130.00,1.1728
7129.00,1.1709
7128.00,1.1689
7127.00,1.1663
7126.00,1.1627
7125.00,1.1585
7124.00,1.1543
7123.00,1.1507
7122.00,1.1475
7121.00,1.1443
7120.00,1.1407
7119.00,1.1366
7118.00,1.1322
7117.00,1.1272
7116.00,1.1213
7115.00,1.1143
7114.00,1.1066
7113.00,1.0987
7112.00,1.0912
7111.00,1.0841
7110.00,1.0770
7109.00,1.0696
7108.00,1.0614
7107.00,1.0527
7106.00,1.0440
7105.00,1.0354
7104.00,1.0268
7103.00,1.0176
7102.00,1.0079
7101.00,0.9981
7100.00,0.9885
7099.00,0.9790
7098.00,0.9691
7097.00,0.9587
7096.00,0.9478
7095.00,0.9369
7094.00,0.9263
7093.00,0.9160
7092.00,0.9060
7091.00,0.8961
7090.00,0.8864
7089.00,0.8772
7088.00,0.8684
7087.00,0.8597
7086.00,0.8513
7085.00,0.8431
7084.00,0.8348
7083.00,0.8267
7082.00,0.8190
7081.00,0.8117
7080.00,0.8051
7079.00,0.7991
7078.00,0.7935
7077.00,0.7884
7076.00,0.7839
7075.00,0.7801
7074.00,0.7770
7073.00,0.7746
7072.00,0.7728
7071.00,0.7714
7070.00,0.7705
7069.00,0.7703
7068.00,0.7709
7067.00,0.7721
7066.00,0.7739
7065.00,0.7761
7064.00,0.7790
7063.00,0.7826
7062.00,0.7869
7061.00,0.7919
7060.00,0.7974
7059.00,0.8032
7058.00,0.8095
7057.00,0.8161
7056.00,0.8231
7055.00,0.8303
7054.00,0.8378
7053.00,0.8459
7052.00,0.8545
7051.00,0.8636
7050.00,0.8730
7049.00,0.8829
7048.00,0.8931
7047.00,0.9035
7046.00,0.9137
7045.00,0.9238
7044.00,0.9339
7043.00,0.9442
7042.00,0.9545
7041.00,0.9646
7040.00,0.9747
7039.00,0.9848
7038.00,0.9949
7037.00,1.0047
7036.00,1.0142
7035.00,1.0237
7034.00,1.0334
7033.00,1.0431
7032.00,1.0525
7031.00,1.0612
7030.00,1.0697
7029.00,1.0784
7028.00,1.0874
7027.00,1.0963
7026.00,1.1048
7025.00,1.1130
7024.00,1.1212
7023.00,1.1297
7022.00,1.1379
7021.00,1.1450
7020.00,1.1509
7019.00,1.1562
7018.00,1.1616
7017.00,1.1674
7016.00,1.1733
7015.00,1.1788
7014.00,1.1839
7013.00,1.1886
7012.00,1.1930
7011.00,1.1968
7010.00,1.1993
7009.00,1.2008
7008.00,1.2020
7007.00,1.2037
7006.00,1.2061
7005.00,1.2081
7004.00,1.2093
7003.00,1.2099
7002.00,1.2101
7001.00,1.2101
7000.00,1.2093
6999.00,1.2077
6998.00,1.2059
6997.00,1.2043
6996.00,1.2026
6995.00,1.2003
6994.00,1.1968
6993.00,1.1926
6992.00,1.1884
6991.00,1.1843
6990.00,1.1802
6989.00,1.1760
6988.00,1.1715
6987.00,1.1668
6986.00,1.1613
6985.00,1.1551
6984.00,1.1480
6983.00,1.1405
6982.00,1.1322
6981.00,1.1234
6980.00,1.1143
6979.00,1.1053
6978.00,1.0963
6977.00,1.0870
6976.00,1.0773
6975.00,1.0676
6974.00,1.0580
6973.00,1.0482
6972.00,1.0381
6971.00,1.0277
6970.00,1.0173
6969.00,1.0066
6968.00,0.9955
6967.00,0.9843
6966.00,0.9732
6965.00,0.9623
6964.00,0.9513
6963.00,0.9402
6962.00,0.9293
6961.00,0.9187
6960.00,0.9083
6959.00,0.8978
6958.00,0.8872
6957.00,0.8770
6956.00,0.8672
6955.00,0.8578
6954.00,0.8488
6953.00,0.8403
6952.00,0.8323
6951.00,0.8247
6950.00,0.8174
6949.00,0.8103
6948.00,0.8037
6947.00,0.7979
6946.00,0.7928
6945.00,0.7881
6944.00,0.7840
6943.00,0.7806
6942.00,0.7778
6941.00,0.7755
6940.00,0.7735
6939.00,0.7719
6938.00,0.7712
6937.00,0.7717
6936.00,0.7733
6935.00,0.7755
6934.00,0.7784
6933.00,0.7819
6932.00,0.7861
6931.00,0.7908
6930.00,0.7957
6929.00,0.8010
6928.00,0.8067
6927.00,0.8132
6926.00,0.8202
6925.00,0.8276
6924.00,0.8354
6923.00,0.8435
6922.00,0.8520
6921.00,0.8608
6920.00,0.8700
6919.00,0.8794
6918.00,0.8890
6917.00,0.8988
6916.00,0.9088
6915.00,0.9188
6914.00,0.9289
6913.00,0.9389
6912.00,0.9489
6911.00,0.9588
6910.00,0.9689
6909.00,0.9791
6908.00,0.9893
6907.00,0.9994
6906.00,1.0092
6905.00,1.0189
6904.00,1.0287
6903.00,1.0385
6902.00,1.0483
6901.00,1.0580
6900.00,1.0674
6899.00,1.0765
6898.00,1.0853
6897.00,1.0937
6896.00,1.1019
6895.00,1.1099
6894.00,1.1177
6893.00,1.1252
6892.00,1.1323
6891.00,1.1391
6890.00,1.1457
6889.00,1.1518
6888.00,1.1575
6887.00,1.1625
6886.00,1.1673
6885.00,1.1720
6884.00,1.1768
6883.00,1.1816
6882.00,1.1858
6881.00,1.1892
6880.00,1.1918
6879.00,1.1940
6878.00,1.1959
6877.00,1.1973
6876.00,1.1981
6875.00,1.1988
6874.00,1.1999
6873.00,1.2011
6872.00,1.2016
6871.00,1.2013
6870.00,1.2004
6869.00,1.1995
6868.00,1.1984
6867.00,1.1964
6866.00,1.1933
6865.00,1.1896
6864.00,1.1858
6863.00,1.1820
6862.00,1.1779
6861.00,1.1734
6860.00,1.1688
6859.00,1.1644
6858.00,1.1600
6857.00,1.1552
6856.00,1.1497
6855.00,1.1434
6854.00,1.1369
6853.00,1.1300
6852.00,1.1229
6851.00,1.1155
6850.00,1.1077
6849.00,1.0998
6848.00,1.0917
6847.00,1.0835
6846.00,1.0751
6845.00,1.0663
6844.00,1.0570
6843.00,1.0474
6842.00,1.0377
6841.00,1.0277
6840.00,1.0172
6839.00,1.0061
6838.00,0.9949
6837.00,0.9840
6836.00,0.9734
6835.00,0.9628
6834.00,0.9518
6833.00,0.9408
6832.00,0.9300
6831.00,0.9194
6830.00,0.9087
6829.00,0.8980
6828.00,0.8873
6827.00,0.8769
6826.00,0.8669
6825.00,0.8575
6824.00,0.8486
6823.00,0.8401
6822.00,0.8318
6821.00,0.8239
6820.00,0.8162
6819.00,0.8088
6818.00,0.8016
6817.00,0.7950
6816.00,0.7890
6815.00,0.7836
6814.00,0.7790
6813.00,0.7751
6812.00,0.7721
6811.00,0.7698
6810.00,0.7681
6809.00,0.7669
6808.00,0.7662
6807.00,0.7661
6806.00,0.7668
6805.00,0.7682
6804.00,0.7702
6803.00,0.7729
6802.00,0.7763
6801.00,0.7806
6800.00,0.7854
6799.00,0.7907
6798.00,0.7966
6797.00,0.8031
6796.00,0.8101
6795.00,0.8175
6794.00,0.8253
6793.00,0.8336
6792.00,0.8423
6791.00,0.8510
6790.00,0.8598
6789.00,0.8689
6788.00,0.8786
6787.00,0.8887
6786.00,0.8992
6785.00,0.9099
6784.00,0.9209
6783.00,0.9320
6782.00,0.9430
6781.00,0.9536
6780.00,0.9639
6779.00,0.9740
6778.00,0.9842
6777.00,0.9945
6776.00,1.0048
6775.00,1.0152
6774.00,1.0257
6773.00,1.0364
6772.00,1.0468
6771.00,1.0567
6770.00,1.0661
6769.00,1.0751
6768.00,1.0839
6767.00,1.0928
6766.00,1.1018
6765.00,1.1107
6764.00,1.1192
6763.00,1.1272
6762.00,1.1348
6761.00,1.1421
6760.00,1.1491
6759.00,1.1554
6758.00,1.1615
6757.00,1.1675
6756.00,1.1739
6755.00,1.1806
6754.00,1.1870
6753.00,1.1928
6752.00,1.1979
6751.00,1.2025
6750.00,1.2066
6749.00,1.2103
6748.00,1.2135
6747.00,1.2165
6746.00,1.2190
6745.00,1.2210
6744.00,1.2225
6743.00,1.2236
6742.00,1.2243
6741.00,1.2245
6740.00,1.2240
6739.00,1.2231
6738.00,1.2224
6737.00,1.2218
6736.00,1.2209
6735.00,1.2192
6734.00,1.2163
6733.00,1.2127
6732.00,1.2089
6731.00,1.2049
6730.00,1.2006
6729.00,1.1960
6728.00,1.1912
6727.00,1.1862
6726.00,1.1809
6725.00,1.1752
6724.00,1.1688
6723.00,1.1620
6722.00,1.1545
6721.00,1.1465
6720.00,1.1379
6719.00,1.1292
6718.00,1.1203
6717.00,1.1115
6716.00,1.1028
6715.00,1.0941
6714.00,1.0852
6713.00,1.0759
6712.00,1.0659
6711.00,1.0553
6710.00,1.0443
6709.00,1.0328
6708.00,1.0211
6707.00,1.0091
6706.00,0.9971
6705.00,0.9852
6704.00,0.9735
6703.00,0.9618
6702.00,0.9502
6701.00,0.9386
6700.00,0.9272
6699.00,0.9161
6698.00,0.9052
6697.00,0.8945
6696.00,0.8840
6695.00,0.8737
6694.00,0.8639
6693.00,0.8544
6692.00,0.8450
6691.00,0.8359
6690.00,0.8271
6689.00,0.8189
6688.00,0.8112
6687.00,0.8041
6686.00,0.7975
6685.00,0.7917
6684.00,0.7865
6683.00,0.7818
6682.00,0.7777
6681.00,0.7743
6680.00,0.7713
6679.00,0.7690
6678.00,0.7675
6677.00,0.7669
6676.00,0.7671
6675.00,0.7680
6674.00,0.7697
6673.00,0.7722
6672.00,0.7755
6671.00,0.7794
6670.00,0.7838
6669.00,0.7886
6668.00,0.7942
6667.00,0.8004
6666.00,0.8071
6665.00,0.8142
6664.00,0.8217
6663.00,0.8297
6662.00,0.8382
6661.00,0.8471
6660.00,0.8562
6659.00,0.8657
6658.00,0.8756
6657.00,0.8858
6656.00,0.8962
6655.00,0.9065
6654.00,0.9169
6653.00,0.9273
6652.00,0.9377
6651.00,0.9481
6650.00,0.9589
6649.00,0.9696
6648.00,0.9803
6647.00,0.9908
6646.00,1.0013
6645.00,1.0119
6644.00,1.0224
6643.00,1.0325
6642.00,1.0425
6641.00,1.0526
6640.00,1.0628
6639.00,1.0729
6638.00,1.0825
6637.00,1.0918
6636.00,1.1007
6635.00,1.1093
6634.00,1.1175
6633.00,1.1253
6632.00,1.1331
6631.00,1.1407
6630.00,1.1479
6629.00,1.1547
6628.00,1.1612
6627.00,1.1674
6626.00,1.1733
6625.00,1.1787
6624.00,1.1835
6623.00,1.1882
6622.00,1.1927
6621.00,1.1970
6620.00,1.2006
6619.00,1.2036
6618.00,1.2062
6617.00,1.2085
6616.00,1.2105
6615.00,1.2121
6614.00,1.2134
6613.00,1.2142
6612.00,1.2146
6611.00,1.2145
6610.00,1.2140
6609.00,1.2131
6608.00,1.2118
6607.00,1.2102
6606.00,1.2086
6605.00,1.2067
6604.00,1.2044
6603.00,1.2016
6602.00,1.1984
6601.00,1.1949
6600.00,1.1908
6599.00,1.1862
6598.00,1.1812
6597.00,1.1760
6596.00,1.1704
6595.00,1.1643
6594.00,1.1579
6593.00,1.1513
6592.00,1.1446
6591.00,1.1377
6590.00,1.1304
6589.00,1.1227
6588.00,1.1144
6587.00,1.1056
6586.00,1.0967
6585.00,1.0879
6584.00,1.0787
6583.00,1.0690
6582.00,1.0589
6581.00,1.0488
6580.00,1.0387
6579.00,1.0285
6578.00,1.0177
6577.00,1.0067
6576.00,0.9956
6575.00,0.9844
6574.00,0.9731
6573.00,0.9617
6572.00,0.9503
6571.00,0.9390
6570.00,0.9279
6569.00,0.9169
6568.00,0.9060
6567.00,0.8951
6566.00,0.8842
6565.00,0.8736
6564.00,0.8633
6563.00,0.8534
6562.00,0.8440
6561.00,0.8348
6560.00,0.8259
6559.00,0.8174
6558.00,0.8093
6557.00,0.8017
6556.00,0.7946
6555.00,0.7880
6554.00,0.7819
6553.00,0.7765
6552.00,0.7719
6551.00,0.7680
6550.00,0.7647
6549.00,0.7623
6548.00,0.7608
6547.00,0.7602
6546.00,0.7603
6545.00,0.7611
6544.00,0.7624
6543.00,0.7645
6542.00,0.7673
6541.00,0.7708
6540.00,0.7749
6539.00,0.7795
6538.00,0.7847
6537.00,0.7907
6536.00,0.7974
6535.00,0.8046
6534.00,0.8123
6533.00,0.8204
6532.00,0.8290
6531.00,0.8381
6530.00,0.8476
6529.00,0.8574
6528.00,0.8675
6527.00,0.8778
6526.00,0.8882
6525.00,0.8989
6524.00,0.9099
6523.00,0.9209
6522.00,0.9320
6521.00,0.9431
6520.00,0.9544
6519.00,0.9657
6518.00,0.9772
6517.00,0.9887
6516.00,1.0001
6515.00,1.0117
6514.00,1.0232
6513.00,1.0346
6512.00,1.0455
6511.00,1.0561
6510.00,1.0662
6509.00,1.0761
6508.00,1.0859
6507.00,1.0957
6506.00,1.1053
6505.00,1.1150
6504.00,1.1245
6503.00,1.1339
6502.00,1.1429
6501.00,1.1515
6500.00,1.1597
6499.00,1.1677
6498.00,1.1752
6497.00,1.1822
6496.00,1.1887
6495.00,1.1951
6494.00,1.2014
6493.00,1.2072
6492.00,1.2124
6491.00,1.2170
6490.00,1.2212
6489.00,1.2253
6488.00,1.2292
6487.00,1.2327
6486.00,1.2360
6485.00,1.2391
6484.00,1.2419
6483.00,1.2440
6482.00,1.2457
6481.00,1.2469
6480.00,1.2476
6479.00,1.2476
6478.00,1.2469
6477.00,1.2456
6476.00,1.2440
6475.00,1.2423
6474.00,1.2405
6473.00,1.2385
6472.00,1.2362
6471.00,1.2336
6470.00,1.2306
6469.00,1.2270
6468.00,1.2226
6467.00,1.2174
6466.00,1.2118
6465.00,1.2060
6464.00,1.2000
6463.00,1.1936
6462.00,1.1868
6461.00,1.1794
6460.00,1.1716
6459.00,1.1634
6458.00,1.1549
6457.00,1.1460
6456.00,1.1365
6455.00,1.1265
6454.00,1.1164
6453.00,1.1064
6452.00,1.0961
6451.00,1.0856
6450.00,1.0747
6449.00,1.0635
6448.00,1.0520
6447.00,1.0403
6446.00,1.0283
6445.00,1.0161
6444.00,1.0040
6443.00,0.9919
6442.00,0.9801
6441.00,0.9683
6440.00,0.9563
6439.00,0.9440
6438.00,0.9316
6437.00,0.9192
6436.00,0.9070
6435.00,0.8952
6434.00,0.8837
6433.00,0.8726
6432.00,0.8619
6431.00,0.8515
6430.00,0.8416
6429.00,0.8322
6428.00,0.8232
6427.00,0.8147
6426.00,0.8068
6425.00,0.7995
6424.00,0.7928
6423.00,0.7865
6422.00,0.7808
6421.00,0.7759
6420.00,0.7720
6419.00,0.7689
6418.00,0.7666
6417.00,0.7649
6416.00,0.7640
6415.00,0.7638
6414.00,0.7643
6413.00,0.7656
6412.00,0.7675
6411.00,0.7702
6410.00,0.7739
6409.00,0.7785
6408.00,0.7837
6407.00,0.7893
6406.00,0.7954
6405.00,0.8021
6404.00,0.8094
6403.00,0.8172
6402.00,0.8256
6401.00,0.8346
6400.00,0.8443
6399.00,0.8544
6398.00,0.8648
6397.00,0.8753
6396.00,0.8859
6395.00,0.8965
6394.00,0.9072
6393.00,0.9182
6392.00,0.9293
6391.00,0.9406
6390.00,0.9520
6389.00,0.9636
6388.00,0.9752
6387.00,0.9867
6386.00,0.9980
6385.00,1.0089
6384.00,1.0195
6383.00,1.0298
6382.00,1.0402
6381.00,1.0507
6380.00,1.0613
6379.00,1.0717
6378.00,1.0819
6377.00,1.0921
6376.00,1.1020
6375.00,1.1112
6374.00,1.1200
6373.00,1.1286
6372.00,1.1374
6371.00,1.1460
6370.00,1.1543
6369.00,1.1620
6368.00,1.1692
6367.00,1.1759
6366.00,1.1820
6365.00,1.1878
6364.00,1.1937
6363.00,1.1996
6362.00,1.2054
6361.00,1.2106
6360.00,1.2151
6359.00,1.2191
6358.00,1.2225
6357.00,1.2255
6356.00,1.2282
6355.00,1.2309
6354.00,1.2333
6353.00,1.2352
6352.00,1.2364
6351.00,1.2370
6350.00,1.2370
6349.00,1.2365
6348.00,1.2356
6347.00,1.2344
6346.00,1.2332
6345.00,1.2318
6344.00,1.2301
6343.00,1.2282
6342.00,1.2262
6341.00,1.2238
6340.00,1.2208
6339.00,1.2169
6338.00,1.2124
6337.00,1.2075
6336.00,1.2023
6335.00,1.1968
6334.00,1.1909
6333.00,1.1846
6332.00,1.1780
6331.00,1.1709
6330.00,1.1633
6329.00,1.1551
6328.00,1.1469
6327.00,1.1388
6326.00,1.1309
6325.00,1.1228
6324.00,1.1140
6323.00,1.1045
6322.00,1.0944
6321.00,1.0838
6320.00,1.0728
6319.00,1.0617
6318.00,1.0506
6317.00,1.0395
6316.00,1.0282
6315.00,1.0167
6314.00,1.0051
6313.00,0.9933
6312.00,0.9814
6311.00,0.9695
6310.00,0.9576
6309.00,0.9458
6308.00,0.9340
6307.00,0.9221
6306.00,0.9099
6305.00,0.8978
6304.00,0.8858
6303.00,0.8744
6302.00,0.8634
6301.00,0.8529
6300.00,0.8428
6299.00,0.8331
6298.00,0.8238
6297.00,0.8148
6296.00,0.8061
6295.00,0.7978
6294.00,0.7903
6293.00,0.7836
6292.00,0.7778
6291.00,0.7726
6290.00,0.7683
6289.00,0.7647
6288.00,0.7618
6287.00,0.7595
6286.00,0.7580
6285.00,0.7574
6284.00,0.7578
6283.00,0.7590
6282.00,0.7610
6281.00,0.7637
6280.00,0.7671
6279.00,0.7710
6278.00,0.7757
6277.00,0.7811
6276.00,0.7872
6275.00,0.7940
6274.00,0.8015
6273.00,0.8097
6272.00,0.8183
6271.00,0.8274
6270.00,0.8369
6269.00,0.8467
6268.00,0.8567
6267.00,0.8671
6266.00,0.8779
6265.00,0.8890
6264.00,0.9002
6263.00,0.9117
6262.00,0.9236
6261.00,0.9359
6260.00,0.9482
6259.00,0.9602
6258.00,0.9721
6257.00,0.9841
6256.00,0.9961
6255.00,1.0080
6254.00,1.0198
6253.00,1.0314
6252.00,1.0428
6251.00,1.0541
6250.00,1.0652
6249.00,1.0761
6248.00,1.0870
6247.00,1.0979
6246.00,1.1089
6245.00,1.1197
6244.00,1.1300
6243.00,1.1398
6242.00,1.1493
6241.00,1.1585
6240.00,1.1674
6239.00,1.1760
6238.00,1.1845
6237.00,1.1926
6236.00,1.2002
6235.00,1.2070
6234.00,1.2131
6233.00,1.2191
6232.00,1.2250
6231.00,1.2308
6230.00,1.2365
6229.00,1.2421
6228.00,1.2475
6227.00,1.2522
6226.00,1.2559
6225.00,1.2588
6224.00,1.2613
6223.00,1.2637
6222.00,1.2660
6221.00,1.2678
6220.00,1.2692
6219.00,1.2702
6218.00,1.2707
6217.00,1.2707
6216.00,1.2700
6215.00,1.2689
6214.00,1.2675
6213.00,1.2658
6212.00,1.2635
6211.00,1.2608
6210.00,1.2576
6209.00,1.2539
6208.00,1.2496
6207.00,1.2449
6206.00,1.2400
6205.00,1.2351
6204.00,1.2300
6203.00,1.2245
6202.00,1.2184
6201.00,1.2117
6200.00,1.2042
6199.00,1.1958
6198.00,1.1868
6197.00,1.1775
6196.00,1.1680
6195.00,1.1582
6194.00,1.1483
6193.00,1.1381
6192.00,1.1277
6191.00,1.1174
6190.00,1.1068
6189.00,1.0958
6188.00,1.0842
6187.00,1.0720
6186.00,1.0596
6185.00,1.0470
6184.00,1.0342
6183.00,1.0212
6182.00,1.0082
6181.00,0.9953
6180.00,0.9824
6179.00,0.9694
6178.00,0.9562
6177.00,0.9431
6176.00,0.9301
