Created as New Dataset,Sample 105 By Administrator Date Wednesday, November 24 2021
cm-1,A
7502.00,1.1694
7501.00,1.1717
7500.00,1.1738
7499.00,1.1754
7498.00,1.1764
7497.00,1.1769
7496.00,1.1775
7495.00,1.1782
7494.00,1.1790
7493.00,1.1798
7492.00,1.1806
7491.00,1.1814
7490.00,1.1813
7489.00,1.1797
7488.00,1.1769
7487.00,1.1736
7486.00,1.1702
7485.00,1.1664
7484.00,1.1617
7483.00,1.1565
7482.00,1.1518
7481.00,1.1479
7480.00,1.1441
7479.00,1.1395
7478.00,1.1342
7477.00,1.1287
7476.00,1.1235
7475.00,1.1186
7474.00,1.1138
7473.00,1.1087
7472.00,1.1025
7471.00,1.0952
7470.00,1.0871
7469.00,1.0788
7468.00,1.0703
7467.00,1.0611
7466.00,1.0514
7465.00,1.0417
7464.00,1.0325
7463.00,1.0240
7462.00,1.0156
7461.00,1.0070
7460.00,0.9979
7459.00,0.9888
7458.00,0.9798
7457.00,0.9712
7456.00,0.9626
7455.00,0.9538
7454.00,0.9446
7453.00,0.9354
7452.00,0.9263
7451.00,0.9173
7450.00,0.9083
7449.00,0.8992
7448.00,0.8904
7447.00,0.8824
7446.00,0.8750
7445.00,0.8677
7444.00,0.8601
7443.00,0.8523
7442.00,0.8447
7441.00,0.8375
7440.00,0.8309
7439.00,0.8249
7438.00,0.8195
7437.00,0.8149
7436.00,0.8109
7435.00,0.8073
7434.00,0.8037
7433.00,0.8003
7432.00,0.7971
7431.00,0.7942
7430.00,0.7917
7429.00,0.7898
7428.00,0.7888
7427.00,0.7888
7426.00,0.7895
7425.00,0.7904
7424.00,0.7915
7423.00,0.7932
7422.00,0.7958
7421.00,0.7992
7420.00,0.8029
7419.00,0.8068
7418.00,0.8109
7417.00,0.8155
7416.00,0.8204
7415.00,0.8254
7414.00,0.8305
7413.00,0.8362
7412.00,0.8426
7411.00,0.8497
7410.00,0.8571
7409.00,0.8647
7408.00,0.8724
7407.00,0.8802
7406.00,0.8876
7405.00,0.8948
7404.00,0.9023
7403.00,0.9105
7402.00,0.9190
7401.00,0.9275
7400.00,0.9356
7399.00,0.9436
7398.00,0.9517
7397.00,0.9597
7396.00,0.9675
7395.00,0.9748
7394.00,0.9819
7393.00,0.9891
7392.00,0.9969
7391.00,1.0049
7390.00,1.0127
7389.00,1.0200
7388.00,1.0271
7387.00,1.0343
7386.00,1.0417
7385.00,1.0488
7384.00,1.0554
7383.00,1.0615
7382.00,1.0672
7381.00,1.0731
7380.00,1.0794
7379.00,1.0864
7378.00,1.0933
7377.00,1.0991
7376.00,1.1034
7375.00,1.1062
7374.00,1.1078
7373.00,1.1082
7372.00,1.1074
7371.00,1.1060
7370.00,1.1048
7369.00,1.1042
7368.00,1.1043
7367.00,1.1048
7366.00,1.1056
7365.00,1.1063
7364.00,1.1065
7363.00,1.1059
7362.00,1.1049
7361.00,1.1040
7360.00,1.1033
7359.00,1.1021
7358.00,1.1000
7357.00,1.0976
7356.00,1.0957
7355.00,1.0952
7354.00,1.0960
7353.00,1.0978
7352.00,1.0999
7351.00,1.1016
7350.00,1.1020
7349.00,1.1004
7348.00,1.0966
7347.00,1.0907
7346.00,1.0838
7345.00,1.0768
7344.00,1.0708
7343.00,1.0662
7342.00,1.0628
7341.00,1.0599
7340.00,1.0568
7339.00,1.0528
7338.00,1.0476
7337.00,1.0413
7336.00,1.0344
7335.00,1.0274
7334.00,1.0205
7333.00,1.0139
7332.00,1.0073
7331.00,1.0007
7330.00,0.9940
7329.00,0.9870
7328.00,0.9794
7327.00,0.9714
7326.00,0.9634
7325.00,0.9558
7324.00,0.9489
7323.00,0.9423
7322.00,0.9357
7321.00,0.9288
7320.00,0.9216
7319.00,0.9141
7318.00,0.9064
7317.00,0.8985
7316.00,0.8907
7315.00,0.8832
7314.00,0.8760
7313.00,0.8690
7312.00,0.8622
7311.00,0.8553
7310.00,0.8480
7309.00,0.8406
7308.00,0.8333
7307.00,0.8264
7306.00,0.8199
7305.00,0.8140
7304.00,0.8088
7303.00,0.8044
7302.00,0.8004
7301.00,0.7967
7300.00,0.7932
7299.00,0.7902
7298.00,0.7880
7297.00,0.7862
7296.00,0.7846
7295.00,0.7831
7294.00,0.7820
7293.00,0.7816
7292.00,0.7818
7291.00,0.7823
7290.00,0.7832
7289.00,0.7846
7288.00,0.7868
7287.00,0.7895
7286.00,0.7927
7285.00,0.7962
7284.00,0.8003
7283.00,0.8052
7282.00,0.8105
7281.00,0.8161
7280.00,0.8220
7279.00,0.8282
7278.00,0.8348
7277.00,0.8418
7276.00,0.8491
7275.00,0.8568
7274.00,0.8649
7273.00,0.8733
7272.00,0.8819
7271.00,0.8909
7270.00,0.9001
7269.00,0.9091
7268.00,0.9180
7267.00,0.9272
7266.00,0.9367
7265.00,0.9463
7264.00,0.9557
7263.00,0.9650
7262.00,0.9743
7261.00,0.9836
7260.00,0.9928
7259.00,1.0019
7258.00,1.0110
7257.00,1.0202
7256.00,1.0292
7255.00,1.0381
7254.00,1.0469
7253.00,1.0558
7252.00,1.0646
7251.00,1.0733
7250.00,1.0816
7249.00,1.0893
7248.00,1.0961
7247.00,1.1025
7246.00,1.1090
7245.00,1.1159
7244.00,1.1225
7243.00,1.1290
7242.00,1.1358
7241.00,1.1434
7240.00,1.1513
7239.00,1.1583
7238.00,1.1636
7237.00,1.1673
7236.00,1.1704
7235.00,1.1736
7234.00,1.1767
7233.00,1.1796
7232.00,1.1823
7231.00,1.1850
7230.00,1.1874
7229.00,1.1889
7228.00,1.1896
7227.00,1.1898
7226.00,1.1902
7225.00,1.1906
7224.00,1.1906
7223.00,1.1908
7222.00,1.1921
7221.00,1.1937
7220.00,1.1940
7219.00,1.1919
7218.00,1.1884
7217.00,1.1852
7216.00,1.1826
7215.00,1.1800
7214.00,1.1766
7213.00,1.1726
7212.00,1.1684
7211.00,1.1642
7210.00,1.1596
7209.00,1.1545
7208.00,1.1486
7207.00,1.1422
7206.00,1.1355
7205.00,1.1288
7204.00,1.1223
7203.00,1.1154
7202.00,1.1078
7201.00,1.0996
7200.00,1.0915
7199.00,1.0837
7198.00,1.0760
7197.00,1.0682
7196.00,1.0600
7195.00,1.0515
7194.00,1.0429
7193.00,1.0341
7192.00,1.0247
7191.00,1.0147
7190.00,1.0047
7189.00,0.9948
7188.00,0.9851
7187.00,0.9755
7186.00,0.9660
7185.00,0.9568
7184.00,0.9478
7183.00,0.9385
7182.00,0.9286
7181.00,0.9183
7180.00,0.9082
7179.00,0.8986
7178.00,0.8895
7177.00,0.8808
7176.00,0.8726
7175.00,0.8651
7174.00,0.8581
7173.00,0.8515
7172.00,0.8447
7171.00,0.8376
7170.00,0.8303
7169.00,0.8233
7168.00,0.8170
7167.00,0.8114
7166.00,0.8065
7165.00,0.8023
7164.00,0.7987
7163.00,0.7956
7162.00,0.7929
7161.00,0.7906
7160.00,0.7886
7159.00,0.7871
7158.00,0.7861
7157.00,0.7858
7156.00,0.7864
7155.00,0.7877
7154.00,0.7895
7153.00,0.7918
7152.00,0.7947
7151.00,0.7981
7150.00,0.8022
7149.00,0.8067
7148.00,0.8116
7147.00,0.8170
7146.00,0.8228
7145.00,0.8291
7144.00,0.8356
7143.00,0.8422
7142.00,0.8490
7141.00,0.8561
7140.00,0.8639
7139.00,0.8721
7138.00,0.8803
7137.00,0.8884
7136.00,0.8966
7135.00,0.9053
7134.00,0.9144
7133.00,0.9234
7132.00,0.9321
7131.00,0.9409
7130.00,0.9502
7129.00,0.9597
7128.00,0.9691
7127.00,0.9779
7126.00,0.9864
7125.00,0.9950
7124.00,1.0039
7123.00,1.0129
7122.00,1.0217
7121.00,1.0302
7120.00,1.0382
7119.00,1.0461
7118.00,1.0540
7117.00,1.0620
7116.00,1.0699
7115.00,1.0777
7114.00,1.0857
7113.00,1.0938
7112.00,1.1016
7111.00,1.1086
7110.00,1.1148
7109.00,1.1205
7108.00,1.1261
7107.00,1.1316
7106.00,1.1370
7105.00,1.1424
7104.00,1.1477
7103.00,1.1527
7102.00,1.1573
7101.00,1.1613
7100.00,1.1648
7099.00,1.1678
7098.00,1.1704
7097.00,1.1727
7096.00,1.1751
7095.00,1.1774
7094.00,1.1795
7093.00,1.1813
7092.00,1.1824
7091.00,1.1828
7090.00,1.1823
7089.00,1.1810
7088.00,1.1796
7087.00,1.1784
7086.00,1.1775
7085.00,1.1765
7084.00,1.1750
7083.00,1.1731
7082.00,1.1713
7081.00,1.1691
7080.00,1.1662
7079.00,1.1626
7078.00,1.1589
7077.00,1.1552
7076.00,1.1512
7075.00,1.1467
7074.00,1.1416
7073.00,1.1363
7072.00,1.1309
7071.00,1.1249
7070.00,1.1180
7069.00,1.1104
7068.00,1.1025
7067.00,1.0947
7066.00,1.0869
7065.00,1.0788
7064.00,1.0707
7063.00,1.0627
7062.00,1.0550
7061.00,1.0472
7060.00,1.0389
7059.00,1.0302
7058.00,1.0214
7057.00,1.0126
7056.00,1.0037
7055.00,0.9945
7054.00,0.9851
7053.00,0.9755
7052.00,0.9658
7051.00,0.9562
7050.00,0.9465
7049.00,0.9371
7048.00,0.9280
7047.00,0.9191
7046.00,0.9102
7045.00,0.9012
7044.00,0.8920
7043.00,0.8830
7042.00,0.8743
7041.00,0.8660
7040.00,0.8579
7039.00,0.8502
7038.00,0.8430
7037.00,0.8361
7036.00,0.8295
7035.00,0.8230
7034.00,0.8168
7033.00,0.8109
7032.00,0.8055
7031.00,0.8006
7030.00,0.7963
7029.00,0.7926
7028.00,0.7894
7027.00,0.7866
7026.00,0.7844
7025.00,0.7828
7024.00,0.7819
7023.00,0.7815
7022.00,0.7816
7021.00,0.7823
7020.00,0.7836
7019.00,0.7857
7018.00,0.7886
7017.00,0.7919
7016.00,0.7957
7015.00,0.7999
7014.00,0.8046
7013.00,0.8097
7012.00,0.8151
7011.00,0.8208
7010.00,0.8267
7009.00,0.8330
7008.00,0.8398
7007.00,0.8470
7006.00,0.8545
7005.00,0.8623
7004.00,0.8701
7003.00,0.8781
7002.00,0.8866
7001.00,0.8957
7000.00,0.9052
6999.00,0.9151
6998.00,0.9249
6997.00,0.9348
6996.00,0.9446
6995.00,0.9545
6994.00,0.9645
6993.00,0.9745
6992.00,0.9843
6991.00,0.9939
6990.00,1.0033
6989.00,1.0128
6988.00,1.0222
6987.00,1.0313
6986.00,1.0400
6985.00,1.0489
6984.00,1.0583
6983.00,1.0680
6982.00,1.0774
6981.00,1.0861
6980.00,1.0942
6979.00,1.1020
6978.00,1.1100
6977.00,1.1182
6976.00,1.1263
6975.00,1.1339
6974.00,1.1410
6973.00,1.1476
6972.00,1.1542
6971.00,1.1605
6970.00,1.1666
6969.00,1.1721
6968.00,1.1774
6967.00,1.1825
6966.00,1.1872
6965.00,1.1910
6964.00,1.1938
6963.00,1.1961
6962.00,1.1985
6961.00,1.2011
6960.00,1.2033
6959.00,1.2049
6958.00,1.2061
6957.00,1.2073
6956.00,1.2084
6955.00,1.2092
6954.00,1.2099
6953.00,1.2105
6952.00,1.2109
6951.00,1.2109
6950.00,1.2098
6949.00,1.2077
6948.00,1.2049
6947.00,1.2021
6946.00,1.1993
6945.00,1.1965
6944.00,1.1933
6943.00,1.1897
6942.00,1.1856
6941.00,1.1811
6940.00,1.1760
6939.00,1.1703
6938.00,1.1640
6937.00,1.1574
6936.00,1.1509
6935.00,1.1441
6934.00,1.1369
6933.00,1.1291
6932.00,1.1209
6931.00,1.1125
6930.00,1.1041
6929.00,1.0952
6928.00,1.0857
6927.00,1.0759
6926.00,1.0663
6925.00,1.0571
6924.00,1.0479
6923.00,1.0385
6922.00,1.0290
6921.00,1.0197
6920.00,1.0103
6919.00,1.0006
6918.00,0.9905
6917.00,0.9801
6916.00,0.9694
6915.00,0.9588
6914.00,0.9485
6913.00,0.9384
6912.00,0.9286
6911.00,0.9188
6910.00,0.9092
6909.00,0.8999
6908.00,0.8908
6907.00,0.8819
6906.00,0.8730
6905.00,0.8645
6904.00,0.8564
6903.00,0.8486
6902.00,0.8412
6901.00,0.8341
6900.00,0.8273
6899.00,0.8206
6898.00,0.8141
6897.00,0.8080
6896.00,0.8027
6895.00,0.7981
6894.00,0.7941
6893.00,0.7906
6892.00,0.7878
6891.00,0.7857
6890.00,0.7844
6889.00,0.7835
6888.00,0.7831
6887.00,0.7831
6886.00,0.7836
6885.00,0.7849
6884.00,0.7867
6883.00,0.7891
6882.00,0.7920
6881.00,0.7956
6880.00,0.7998
6879.00,0.8046
6878.00,0.8098
6877.00,0.8154
6876.00,0.8213
6875.00,0.8275
6874.00,0.8342
6873.00,0.8414
6872.00,0.8491
6871.00,0.8572
6870.00,0.8656
6869.00,0.8744
6868.00,0.8830
6867.00,0.8916
6866.00,0.9003
6865.00,0.9093
6864.00,0.9186
6863.00,0.9279
6862.00,0.9375
6861.00,0.9476
6860.00,0.9581
6859.00,0.9685
6858.00,0.9787
6857.00,0.9885
6856.00,0.9982
6855.00,1.0080
6854.00,1.0176
6853.00,1.0270
6852.00,1.0361
6851.00,1.0453
6850.00,1.0545
6849.00,1.0635
6848.00,1.0721
6847.00,1.0806
6846.00,1.0890
6845.00,1.0973
6844.00,1.1053
6843.00,1.1132
6842.00,1.1208
6841.00,1.1283
6840.00,1.1355
6839.00,1.1425
6838.00,1.1493
6837.00,1.1559
6836.00,1.1620
6835.00,1.1675
6834.00,1.1726
6833.00,1.1775
6832.00,1.1822
6831.00,1.1866
6830.00,1.1905
6829.00,1.1941
6828.00,1.1974
6827.00,1.2003
6826.00,1.2029
6825.00,1.2051
6824.00,1.2068
6823.00,1.2080
6822.00,1.2090
6821.00,1.2097
6820.00,1.2099
6819.00,1.2097
6818.00,1.2089
6817.00,1.2076
6816.00,1.2058
6815.00,1.2036
6814.00,1.2013
6813.00,1.1989
6812.00,1.1961
6811.00,1.1927
6810.00,1.1888
6809.00,1.1848
6808.00,1.1808
6807.00,1.1767
6806.00,1.1721
6805.00,1.1669
6804.00,1.1611
6803.00,1.1549
6802.00,1.1486
6801.00,1.1417
6800.00,1.1343
6799.00,1.1264
6798.00,1.1186
6797.00,1.1106
6796.00,1.1025
6795.00,1.0942
6794.00,1.0858
6793.00,1.0774
6792.00,1.0685
6791.00,1.0591
6790.00,1.0496
6789.00,1.0403
6788.00,1.0310
6787.00,1.0214
6786.00,1.0114
6785.00,1.0015
6784.00,0.9918
6783.00,0.9818
6782.00,0.9717
6781.00,0.9614
6780.00,0.9512
6779.00,0.9412
6778.00,0.9312
6777.00,0.9213
6776.00,0.9114
6775.00,0.9016
6774.00,0.8919
6773.00,0.8825
6772.00,0.8733
6771.00,0.8642
6770.00,0.8553
6769.00,0.8468
6768.00,0.8386
6767.00,0.8307
6766.00,0.8231
6765.00,0.8159
6764.00,0.8094
6763.00,0.8035
6762.00,0.7983
6761.00,0.7934
6760.00,0.7890
6759.00,0.7852
6758.00,0.7818
6757.00,0.7791
6756.00,0.7769
6755.00,0.7753
6754.00,0.7743
6753.00,0.7740
6752.00,0.7744
6751.00,0.7753
6750.00,0.7769
6749.00,0.7792
6748.00,0.7820
6747.00,0.7852
6746.00,0.7888
6745.00,0.7929
6744.00,0.7975
6743.00,0.8027
6742.00,0.8085
6741.00,0.8148
6740.00,0.8217
6739.00,0.8291
6738.00,0.8371
6737.00,0.8456
6736.00,0.8543
6735.00,0.8631
6734.00,0.8721
6733.00,0.8812
6732.00,0.8904
6731.00,0.8998
6730.00,0.9093
6729.00,0.9188
6728.00,0.9285
6727.00,0.9383
6726.00,0.9485
6725.00,0.9589
6724.00,0.9693
6723.00,0.9794
6722.00,0.9895
6721.00,0.9997
6720.00,1.0100
6719.00,1.0203
6718.00,1.0305
6717.00,1.0408
6716.00,1.0510
6715.00,1.0612
6714.00,1.0710
6713.00,1.0804
6712.00,1.0895
6711.00,1.0983
6710.00,1.1072
6709.00,1.1161
6708.00,1.1251
6707.00,1.1339
6706.00,1.1422
6705.00,1.1500
6704.00,1.1573
6703.00,1.1641
6702.00,1.1703
6701.00,1.1759
6700.00,1.1813
6699.00,1.1869
6698.00,1.1926
6697.00,1.1978
6696.00,1.2024
6695.00,1.2064
6694.00,1.2101
6693.00,1.2137
6692.00,1.2168
6691.00,1.2194
6690.00,1.2214
6689.00,1.2231
6688.00,1.2245
6687.00,1.2258
6686.00,1.2270
6685.00,1.2283
6684.00,1.2294
6683.00,1.2299
6682.00,1.2296
6681.00,1.2288
6680.00,1.2276
6679.00,1.2257
6678.00,1.2229
6677.00,1.2192
6676.00,1.2154
6675.00,1.2116
6674.00,1.2079
6673.00,1.2039
6672.00,1.1996
6671.00,1.1951
6670.00,1.1903
6669.00,1.1851
6668.00,1.1794
6667.00,1.1733
6666.00,1.1667
6665.00,1.1597
6664.00,1.1525
6663.00,1.1451
6662.00,1.1374
6661.00,1.1291
6660.00,1.1200
6659.00,1.1104
6658.00,1.1007
6657.00,1.0910
6656.00,1.0812
6655.00,1.0714
6654.00,1.0618
6653.00,1.0523
6652.00,1.0424
6651.00,1.0320
6650.00,1.0213
6649.00,1.0105
6648.00,0.9996
6647.00,0.9888
6646.00,0.9780
6645.00,0.9674
6644.00,0.9567
6643.00,0.9461
6642.00,0.9354
6641.00,0.9247
6640.00,0.9140
6639.00,0.9035
6638.00,0.8933
6637.00,0.8837
6636.00,0.8744
6635.00,0.8654
6634.00,0.8566
6633.00,0.8481
6632.00,0.8399
6631.00,0.8322
6630.00,0.8248
6629.00,0.8178
6628.00,0.8113
6627.00,0.8052
6626.00,0.7997
6625.00,0.7949
6624.00,0.7908
6623.00,0.7872
6622.00,0.7843
6621.00,0.7820
6620.00,0.7803
6619.00,0.7790
6618.00,0.7783
6617.00,0.7784
6616.00,0.7792
6615.00,0.7808
6614.00,0.7832
6613.00,0.7863
6612.00,0.7899
6611.00,0.7939
6610.00,0.7986
6609.00,0.8037
6608.00,0.8093
6607.00,0.8152
6606.00,0.8215
6605.00,0.8284
6604.00,0.8358
6603.00,0.8434
6602.00,0.8513
6601.00,0.8596
6600.00,0.8685
6599.00,0.8776
6598.00,0.8869
6597.00,0.8963
6596.00,0.9060
6595.00,0.9161
6594.00,0.9262
6593.00,0.9363
6592.00,0.9464
6591.00,0.9565
6590.00,0.9667
6589.00,0.9770
6588.00,0.9873
6587.00,0.9975
6586.00,1.0077
6585.00,1.0177
6584.00,1.0275
6583.00,1.0374
6582.00,1.0474
6581.00,1.0575
6580.00,1.0674
6579.00,1.0770
6578.00,1.0865
6577.00,1.0958
6576.00,1.1048
6575.00,1.1132
6574.00,1.1214
6573.00,1.1298
6572.00,1.1382
6571.00,1.1464
6570.00,1.1540
6569.00,1.1607
6568.00,1.1667
6567.00,1.1719
6566.00,1.1768
6565.00,1.1815
6564.00,1.1864
6563.00,1.1912
6562.00,1.1961
6561.00,1.2007
6560.00,1.2049
6559.00,1.2085
6558.00,1.2113
6557.00,1.2135
6556.00,1.2150
6555.00,1.2163
6554.00,1.2173
6553.00,1.2180
6552.00,1.2186
6551.00,1.2189
6550.00,1.2190
6549.00,1.2188
6548.00,1.2182
6547.00,1.2172
6546.00,1.2156
6545.00,1.2134
6544.00,1.2107
6543.00,1.2078
6542.00,1.2047
6541.00,1.2014
6540.00,1.1976
6539.00,1.1931
6538.00,1.1883
6537.00,1.1832
6536.00,1.1778
6535.00,1.1721
6534.00,1.1664
6533.00,1.1609
6532.00,1.1553
6531.00,1.1493
6530.00,1.1425
6529.00,1.1351
6528.00,1.1273
6527.00,1.1194
6526.00,1.1115
6525.00,1.1032
6524.00,1.0944
6523.00,1.0851
6522.00,1.0757
6521.00,1.0661
6520.00,1.0565
6519.00,1.0467
6518.00,1.0369
6517.00,1.0273
6516.00,1.0177
6515.00,1.0080
6514.00,0.9980
6513.00,0.9875
6512.00,0.9768
6511.00,0.9659
6510.00,0.9552
6509.00,0.9447
6508.00,0.9342
6507.00,0.9239
6506.00,0.9138
6505.00,0.9038
6504.00,0.8939
6503.00,0.8842
6502.00,0.8746
6501.00,0.8651
6500.00,0.8557
6499.00,0.8466
6498.00,0.8379
6497.00,0.8297
6496.00,0.8220
6495.00,0.8147
6494.00,0.8078
6493.00,0.8017
6492.00,0.7962
6491.00,0.7912
6490.00,0.7866
6489.00,0.7825
6488.00,0.7791
6487.00,0.7762
6486.00,0.7739
6485.00,0.7723
6484.00,0.7714
6483.00,0.7711
6482.00,0.7716
6481.00,0.7728
6480.00,0.7746
6479.00,0.7769
6478.00,0.7800
6477.00,0.7836
6476.00,0.7877
6475.00,0.7923
6474.00,0.7977
6473.00,0.8037
6472.00,0.8103
6471.00,0.8172
6470.00,0.8246
6469.00,0.8326
6468.00,0.8411
6467.00,0.8497
6466.00,0.8585
6465.00,0.8678
6464.00,0.8774
6463.00,0.8873
6462.00,0.8973
6461.00,0.9075
6460.00,0.9178
6459.00,0.9283
6458.00,0.9391
6457.00,0.9500
6456.00,0.9611
6455.00,0.9722
6454.00,0.9833
6453.00,0.9944
6452.00,1.0054
6451.00,1.0161
6450.00,1.0268
6449.00,1.0375
6448.00,1.0482
6447.00,1.0590
6446.00,1.0696
6445.00,1.0799
6444.00,1.0901
6443.00,1.1002
6442.00,1.1103
6441.00,1.1202
6440.00,1.1294
6439.00,1.1382
6438.00,1.1467
6437.00,1.1549
6436.00,1.1626
6435.00,1.1698
6434.00,1.1767
6433.00,1.1837
6432.00,1.1905
6431.00,1.1972
6430.00,1.2037
6429.00,1.2101
6428.00,1.2161
6427.00,1.2217
6426.00,1.2268
6425.00,1.2315
6424.00,1.2357
6423.00,1.2392
6422.00,1.2421
6421.00,1.2444
6420.00,1.2465
6419.00,1.2484
6418.00,1.2500
6417.00,1.2511
6416.00,1.2516
6415.00,1.2519
6414.00,1.2520
6413.00,1.2519
6412.00,1.2508
6411.00,1.2490
6410.00,1.2468
6409.00,1.2448
6408.00,1.2426
6407.00,1.2397
6406.00,1.2364
6405.00,1.2328
6404.00,1.2289
6403.00,1.2243
6402.00,1.2192
6401.00,1.2140
6400.00,1.2089
6399.00,1.2036
6398.00,1.1976
6397.00,1.1910
6396.00,1.1839
6395.00,1.1763
6394.00,1.1687
6393.00,1.1609
6392.00,1.1529
6391.00,1.1444
6390.00,1.1355
6389.00,1.1264
6388.00,1.1169
6387.00,1.1069
6386.00,1.0965
6385.00,1.0859
6384.00,1.0753
6383.00,1.0647
6382.00,1.0538
6381.00,1.0426
6380.00,1.0312
6379.00,1.0198
6378.00,1.0085
6377.00,0.9973
6376.00,0.9860
6375.00,0.9746
6374.00,0.9631
6373.00,0.9516
6372.00,0.9401
6371.00,0.9287
6370.00,0.9175
6369.00,0.9064
6368.00,0.8955
6367.00,0.8849
6366.00,0.8748
6365.00,0.8651
6364.00,0.8557
6363.00,0.8465
6362.00,0.8378
6361.00,0.8296
6360.00,0.8218
6359.00,0.8144
6358.00,0.8074
6357.00,0.8011
6356.00,0.7953
6355.00,0.7902
6354.00,0.7858
6353.00,0.7821
6352.00,0.7790
6351.00,0.7767
6350.00,0.7751
6349.00,0.7741
6348.00,0.7738
6347.00,0.7740
6346.00,0.7748
6345.00,0.7766
6344.00,0.7791
6343.00,0.7823
6342.00,0.7862
6341.00,0.7907
6340.00,0.7958
6339.00,0.8015
6338.00,0.8076
6337.00,0.8144
6336.00,0.8217
6335.00,0.8294
6334.00,0.8374
6333.00,0.8458
6332.00,0.8544
6331.00,0.8634
6330.00,0.8727
6329.00,0.8823
6328.00,0.8923
6327.00,0.9026
6326.00,0.9131
6325.00,0.9237
6324.00,0.9342
6323.00,0.9448
6322.00,0.9557
6321.00,0.9668
6320.00,0.9782
6319.00,0.9896
6318.00,1.0009
6317.00,1.0122
6316.00,1.0233
6315.00,1.0341
6314.00,1.0448
6313.00,1.0553
6312.00,1.0657
6311.00,1.0761
6310.00,1.0865
6309.00,1.0966
6308.00,1.1065
6307.00,1.1159
6306.00,1.1249
6305.00,1.1338
6304.00,1.1424
6303.00,1.1505
6302.00,1.1583
6301.00,1.1659
6300.00,1.1734
6299.00,1.1808
6298.00,1.1879
6297.00,1.1946
6296.00,1.2008
6295.00,1.2065
6294.00,1.2119
6293.00,1.2169
6292.00,1.2215
6291.00,1.2258
6290.00,1.2297
6289.00,1.2330
6288.00,1.2357
6287.00,1.2376
6286.00,1.2391
6285.00,1.2405
6284.00,1.2417
6283.00,1.2428
6282.00,1.2439
6281.00,1.2452
6280.00,1.2462
6279.00,1.2462
6278.00,1.2450
6277.00,1.2429
6276.00,1.2403
6275.00,1.2374
6274.00,1.2345
6273.00,1.2316
6272.00,1.2287
6271.00,1.2256
6270.00,1.2220
6269.00,1.2180
6268.00,1.2133
6267.00,1.2079
6266.00,1.2023
6265.00,1.1969
6264.00,1.1917
6263.00,1.1862
6262.00,1.1800
6261.00,1.1733
6260.00,1.1663
6259.00,1.1590
6258.00,1.1512
6257.00,1.1429
6256.00,1.1342
6255.00,1.1254
6254.00,1.1163
6253.00,1.1069
6252.00,1.0971
6251.00,1.0872
6250.00,1.0770
6249.00,1.0665
6248.00,1.0557
6247.00,1.0448
6246.00,1.0340
6245.00,1.0231
6244.00,1.0122
6243.00,1.0013
6242.00,0.9903
6241.00,0.9791
6240.00,0.9676
6239.00,0.9559
6238.00,0.9442
6237.00,0.9327
6236.00,0.9214
6235.00,0.9103
6234.00,0.8995
6233.00,0.8890
6232.00,0.8785
6231.00,0.8683
6230.00,0.8584
6229.00,0.8489
6228.00,0.8398
6227.00,0.8309
6226.00,0.8225
6225.00,0.8145
6224.00,0.8070
6223.00,0.8000
6222.00,0.7937
6221.00,0.7881
6220.00,0.7834
6219.00,0.7793
6218.00,0.7758
6217.00,0.7730
6216.00,0.7707
6215.00,0.7690
6214.00,0.7680
6213.00,0.7679
6212.00,0.7687
6211.00,0.7702
6210.00,0.7723
6209.00,0.7751
6208.00,0.7786
6207.00,0.7826
6206.00,0.7872
6205.00,0.7925
6204.00,0.7986
6203.00,0.8055
6202.00,0.8129
6201.00,0.8207
6200.00,0.8288
6199.00,0.8373
6198.00,0.8462
6197.00,0.8556
6196.00,0.8654
6195.00,0.8756
6194.00,0.8862
6193.00,0.8971
6192.00,0.9081
6191.00,0.9190
6190.00,0.9300
6189.00,0.9411
6188.00,0.9524
6187.00,0.9640
6186.00,0.9759
6185.00,0.9879
6184.00,0.9998
6183.00,1.0116
6182.00,1.0231
6181.00,1.0344
6180.00,1.0456
6179.00,1.0566
6178.00,1.0679
6177.00,1.0793
6176.00,1.0905
