Created as New Dataset,Sample 107 By Administrator Date Wednesday, November 24 2021
cm-1,A
7502.00,1.1809
7501.00,1.1763
7500.00,1.1718
7499.00,1.1673
7498.00,1.1629
7497.00,1.1585
7496.00,1.1541
7495.00,1.1499
7494.00,1.1456
7493.00,1.1410
7492.00,1.1358
7491.00,1.1300
7490.00,1.1240
7489.00,1.1176
7488.00,1.1110
7487.00,1.1041
7486.00,1.0967
7485.00,1.0885
7484.00,1.0794
7483.00,1.0700
7482.00,1.0609
7481.00,1.0522
7480.00,1.0436
7479.00,1.0351
7478.00,1.0265
7477.00,1.0178
7476.00,1.0089
7475.00,0.9998
7474.00,0.9907
7473.00,0.9818
7472.00,0.9731
7471.00,0.9643
7470.00,0.9552
7469.00,0.9459
7468.00,0.9367
7467.00,0.9277
7466.00,0.9188
7465.00,0.9095
7464.00,0.8999
7463.00,0.8905
7462.00,0.8819
7461.00,0.8740
7460.00,0.8662
7459.00,0.8584
7458.00,0.8506
7457.00,0.8434
7456.00,0.8368
7455.00,0.8305
7454.00,0.8243
7453.00,0.8186
7452.00,0.8135
7451.00,0.8091
7450.00,0.8050
7449.00,0.8012
7448.00,0.7979
7447.00,0.7953
7446.00,0.7934
7445.00,0.7919
7444.00,0.7907
7443.00,0.7898
7442.00,0.7894
7441.00,0.7897
7440.00,0.7904
7439.00,0.7916
7438.00,0.7934
7437.00,0.7959
7436.00,0.7989
7435.00,0.8022
7434.00,0.8058
7433.00,0.8099
7432.00,0.8146
7431.00,0.8198
7430.00,0.8251
7429.00,0.8307
7428.00,0.8369
7427.00,0.8437
7426.00,0.8508
7425.00,0.8579
7424.00,0.8651
7423.00,0.8728
7422.00,0.8808
7421.00,0.8889
7420.00,0.8968
7419.00,0.9046
7418.00,0.9123
7417.00,0.9202
7416.00,0.9284
7415.00,0.9365
7414.00,0.9443
7413.00,0.9518
7412.00,0.9597
7411.00,0.9680
7410.00,0.9765
7409.00,0.9845
7408.00,0.9922
7407.00,1.0000
7406.00,1.0082
7405.00,1.0163
7404.00,1.0240
7403.00,1.0311
7402.00,1.0378
7401.00,1.0444
7400.00,1.0506
7399.00,1.0563
7398.00,1.0613
7397.00,1.0656
7396.00,1.0694
7395.00,1.0733
7394.00,1.0775
7393.00,1.0819
7392.00,1.0861
7391.00,1.0902
7390.00,1.0939
7389.00,1.0972
7388.00,1.0999
7387.00,1.1021
7386.00,1.1041
7385.00,1.1062
7384.00,1.1083
7383.00,1.1102
7382.00,1.1121
7381.00,1.1141
7380.00,1.1163
7379.00,1.1182
7378.00,1.1192
7377.00,1.1190
7376.00,1.1178
7375.00,1.1158
7374.00,1.1126
7373.00,1.1079
7372.00,1.1019
7371.00,1.0954
7370.00,1.0892
7369.00,1.0836
7368.00,1.0789
7367.00,1.0753
7366.00,1.0730
7365.00,1.0712
7364.00,1.0690
7363.00,1.0663
7362.00,1.0635
7361.00,1.0613
7360.00,1.0594
7359.00,1.0572
7358.00,1.0546
7357.00,1.0520
7356.00,1.0495
7355.00,1.0472
7354.00,1.0450
7353.00,1.0430
7352.00,1.0410
7351.00,1.0385
7350.00,1.0348
7349.00,1.0297
7348.00,1.0232
7347.00,1.0155
7346.00,1.0069
7345.00,0.9978
7344.00,0.9893
7343.00,0.9820
7342.00,0.9758
7341.00,0.9702
7340.00,0.9648
7339.00,0.9589
7338.00,0.9521
7337.00,0.9439
7336.00,0.9345
7335.00,0.9250
7334.00,0.9160
7333.00,0.9075
7332.00,0.8991
7331.00,0.8909
7330.00,0.8828
7329.00,0.8747
7328.00,0.8667
7327.00,0.8585
7326.00,0.8505
7325.00,0.8427
7324.00,0.8355
7323.00,0.8290
7322.00,0.8231
7321.00,0.8175
7320.00,0.8122
7319.00,0.8070
7318.00,0.8022
7317.00,0.7977
7316.00,0.7935
7315.00,0.7897
7314.00,0.7865
7313.00,0.7839
7312.00,0.7819
7311.00,0.7803
7310.00,0.7790
7309.00,0.7781
7308.00,0.7775
7307.00,0.7776
7306.00,0.7782
7305.00,0.7794
7304.00,0.7811
7303.00,0.7834
7302.00,0.7864
7301.00,0.7901
7300.00,0.7944
7299.00,0.7991
7298.00,0.8042
7297.00,0.8096
7296.00,0.8152
7295.00,0.8212
7294.00,0.8274
7293.00,0.8337
7292.00,0.8400
7291.00,0.8467
7290.00,0.8540
7289.00,0.8620
7288.00,0.8708
7287.00,0.8798
7286.00,0.8887
7285.00,0.8975
7284.00,0.9064
7283.00,0.9154
7282.00,0.9243
7281.00,0.9331
7280.00,0.9417
7279.00,0.9504
7278.00,0.9597
7277.00,0.9693
7276.00,0.9791
7275.00,0.9889
7274.00,0.9985
7273.00,1.0078
7272.00,1.0170
7271.00,1.0264
7270.00,1.0362
7269.00,1.0458
7268.00,1.0546
7267.00,1.0623
7266.00,1.0696
7265.00,1.0772
7264.00,1.0850
7263.00,1.0926
7262.00,1.1000
7261.00,1.1075
7260.00,1.1155
7259.00,1.1238
7258.00,1.1320
7257.00,1.1394
7256.00,1.1457
7255.00,1.1507
7254.00,1.1551
7253.00,1.1594
7252.00,1.1640
7251.00,1.1687
7250.00,1.1731
7249.00,1.1773
7248.00,1.1809
7247.00,1.1837
7246.00,1.1857
7245.00,1.1871
7244.00,1.1883
7243.00,1.1894
7242.00,1.1905
7241.00,1.1916
7240.00,1.1926
7239.00,1.1932
7238.00,1.1936
7237.00,1.1937
7236.00,1.1934
7235.00,1.1925
7234.00,1.1911
7233.00,1.1894
7232.00,1.1877
7231.00,1.1860
7230.00,1.1837
7229.00,1.1804
7228.00,1.1762
7227.00,1.1716
7226.00,1.1674
7225.00,1.1634
7224.00,1.1592
7223.00,1.1542
7222.00,1.1486
7221.00,1.1429
7220.00,1.1372
7219.00,1.1306
7218.00,1.1229
7217.00,1.1146
7216.00,1.1063
7215.00,1.0982
7214.00,1.0901
7213.00,1.0816
7212.00,1.0732
7211.00,1.0650
7210.00,1.0566
7209.00,1.0476
7208.00,1.0381
7207.00,1.0284
7206.00,1.0189
7205.00,1.0096
7204.00,1.0004
7203.00,0.9911
7202.00,0.9819
7201.00,0.9727
7200.00,0.9634
7199.00,0.9539
7198.00,0.9444
7197.00,0.9348
7196.00,0.9253
7195.00,0.9156
7194.00,0.9060
7193.00,0.8967
7192.00,0.8878
7191.00,0.8790
7190.00,0.8702
7189.00,0.8618
7188.00,0.8539
7187.00,0.8465
7186.00,0.8394
7185.00,0.8324
7184.00,0.8261
7183.00,0.8203
7182.00,0.8150
7181.00,0.8098
7180.00,0.8047
7179.00,0.8003
7178.00,0.7966
7177.00,0.7935
7176.00,0.7908
7175.00,0.7888
7174.00,0.7875
7173.00,0.7870
7172.00,0.7871
7171.00,0.7876
7170.00,0.7887
7169.00,0.7902
7168.00,0.7922
7167.00,0.7945
7166.00,0.7971
7165.00,0.8003
7164.00,0.8039
7163.00,0.8081
7162.00,0.8127
7161.00,0.8179
7160.00,0.8236
7159.00,0.8299
7158.00,0.8366
7157.00,0.8436
7156.00,0.8509
7155.00,0.8583
7154.00,0.8659
7153.00,0.8738
7152.00,0.8818
7151.00,0.8900
7150.00,0.8984
7149.00,0.9070
7148.00,0.9159
7147.00,0.9249
7146.00,0.9340
7145.00,0.9432
7144.00,0.9524
7143.00,0.9614
7142.00,0.9703
7141.00,0.9792
7140.00,0.9882
7139.00,0.9974
7138.00,1.0068
7137.00,1.0163
7136.00,1.0256
7135.00,1.0346
7134.00,1.0433
7133.00,1.0516
7132.00,1.0597
7131.00,1.0674
7130.00,1.0743
7129.00,1.0809
7128.00,1.0876
7127.00,1.0947
7126.00,1.1017
7125.00,1.1083
7124.00,1.1145
7123.00,1.1208
7122.00,1.1271
7121.00,1.1330
7120.00,1.1382
7119.00,1.1428
7118.00,1.1471
7117.00,1.1513
7116.00,1.1553
7115.00,1.1594
7114.00,1.1634
7113.00,1.1667
7112.00,1.1690
7111.00,1.1705
7110.00,1.1720
7109.00,1.1736
7108.00,1.1749
7107.00,1.1758
7106.00,1.1768
7105.00,1.1783
7104.00,1.1800
7103.00,1.1812
7102.00,1.1814
7101.00,1.1805
7100.00,1.1789
7099.00,1.1768
7098.00,1.1745
7097.00,1.1720
7096.00,1.1692
7095.00,1.1662
7094.00,1.1630
7093.00,1.1595
7092.00,1.1556
7091.00,1.1512
7090.00,1.1465
7089.00,1.1418
7088.00,1.1371
7087.00,1.1323
7086.00,1.1270
7085.00,1.1213
7084.00,1.1153
7083.00,1.1089
7082.00,1.1020
7081.00,1.0946
7080.00,1.0868
7079.00,1.0792
7078.00,1.0718
7077.00,1.0643
7076.00,1.0564
7075.00,1.0479
7074.00,1.0390
7073.00,1.0299
7072.00,1.0206
7071.00,1.0111
7070.00,1.0015
7069.00,0.9920
7068.00,0.9827
7067.00,0.9734
7066.00,0.9641
7065.00,0.9547
7064.00,0.9450
7063.00,0.9352
7062.00,0.9255
7061.00,0.9158
7060.00,0.9063
7059.00,0.8974
7058.00,0.8890
7057.00,0.8808
7056.00,0.8724
7055.00,0.8640
7054.00,0.8561
7053.00,0.8486
7052.00,0.8414
7051.00,0.8342
7050.00,0.8273
7049.00,0.8206
7048.00,0.8143
7047.00,0.8083
7046.00,0.8031
7045.00,0.7986
7044.00,0.7947
7043.00,0.7915
7042.00,0.7888
7041.00,0.7868
7040.00,0.7851
7039.00,0.7836
7038.00,0.7824
7037.00,0.7816
7036.00,0.7816
7035.00,0.7824
7034.00,0.7840
7033.00,0.7863
7032.00,0.7890
7031.00,0.7921
7030.00,0.7956
7029.00,0.7998
7028.00,0.8047
7027.00,0.8099
7026.00,0.8154
7025.00,0.8212
7024.00,0.8273
7023.00,0.8339
7022.00,0.8409
7021.00,0.8485
7020.00,0.8564
7019.00,0.8647
7018.00,0.8733
7017.00,0.8821
7016.00,0.8912
7015.00,0.9006
7014.00,0.9100
7013.00,0.9193
7012.00,0.9285
7011.00,0.9377
7010.00,0.9469
7009.00,0.9564
7008.00,0.9658
7007.00,0.9752
7006.00,0.9848
7005.00,0.9948
7004.00,1.0051
7003.00,1.0154
7002.00,1.0251
7001.00,1.0341
7000.00,1.0427
6999.00,1.0513
6998.00,1.0599
6997.00,1.0686
6996.00,1.0772
6995.00,1.0857
6994.00,1.0940
6993.00,1.1023
6992.00,1.1106
6991.00,1.1186
6990.00,1.1260
6989.00,1.1329
6988.00,1.1397
6987.00,1.1464
6986.00,1.1530
6985.00,1.1594
6984.00,1.1656
6983.00,1.1718
6982.00,1.1777
6981.00,1.1828
6980.00,1.1867
6979.00,1.1895
6978.00,1.1917
6977.00,1.1944
6976.00,1.1976
6975.00,1.2010
6974.00,1.2044
6973.00,1.2076
6972.00,1.2107
6971.00,1.2134
6970.00,1.2150
6969.00,1.2154
6968.00,1.2150
6967.00,1.2145
6966.00,1.2141
6965.00,1.2130
6964.00,1.2110
6963.00,1.2082
6962.00,1.2052
6961.00,1.2023
6960.00,1.1995
6959.00,1.1965
6958.00,1.1933
6957.00,1.1895
6956.00,1.1850
6955.00,1.1798
6954.00,1.1741
6953.00,1.1680
6952.00,1.1615
6951.00,1.1550
6950.00,1.1487
6949.00,1.1427
6948.00,1.1367
6947.00,1.1302
6946.00,1.1232
6945.00,1.1155
6944.00,1.1075
6943.00,1.0990
6942.00,1.0902
6941.00,1.0810
6940.00,1.0714
6939.00,1.0616
6938.00,1.0520
6937.00,1.0423
6936.00,1.0325
6935.00,1.0224
6934.00,1.0120
6933.00,1.0017
6932.00,0.9913
6931.00,0.9810
6930.00,0.9707
6929.00,0.9604
6928.00,0.9502
6927.00,0.9400
6926.00,0.9297
6925.00,0.9196
6924.00,0.9098
6923.00,0.9002
6922.00,0.8909
6921.00,0.8818
6920.00,0.8729
6919.00,0.8642
6918.00,0.8559
6917.00,0.8481
6916.00,0.8404
6915.00,0.8329
6914.00,0.8258
6913.00,0.8192
6912.00,0.8131
6911.00,0.8075
6910.00,0.8024
6909.00,0.7978
6908.00,0.7940
6907.00,0.7908
6906.00,0.7883
6905.00,0.7862
6904.00,0.7845
6903.00,0.7830
6902.00,0.7822
6901.00,0.7822
6900.00,0.7831
6899.00,0.7845
6898.00,0.7865
6897.00,0.7891
6896.00,0.7924
6895.00,0.7962
6894.00,0.8003
6893.00,0.8047
6892.00,0.8095
6891.00,0.8147
6890.00,0.8204
6889.00,0.8266
6888.00,0.8333
6887.00,0.8403
6886.00,0.8477
6885.00,0.8556
6884.00,0.8641
6883.00,0.8729
6882.00,0.8818
6881.00,0.8909
6880.00,0.9001
6879.00,0.9094
6878.00,0.9188
6877.00,0.9280
6876.00,0.9372
6875.00,0.9464
6874.00,0.9559
6873.00,0.9657
6872.00,0.9756
6871.00,0.9857
6870.00,0.9959
6869.00,1.0060
6868.00,1.0158
6867.00,1.0253
6866.00,1.0345
6865.00,1.0435
6864.00,1.0525
6863.00,1.0615
6862.00,1.0706
6861.00,1.0795
6860.00,1.0881
6859.00,1.0962
6858.00,1.1042
6857.00,1.1119
6856.00,1.1195
6855.00,1.1268
6854.00,1.1338
6853.00,1.1405
6852.00,1.1468
6851.00,1.1525
6850.00,1.1582
6849.00,1.1641
6848.00,1.1699
6847.00,1.1755
6846.00,1.1805
6845.00,1.1850
6844.00,1.1891
6843.00,1.1924
6842.00,1.1952
6841.00,1.1974
6840.00,1.1994
6839.00,1.2013
6838.00,1.2033
6837.00,1.2051
6836.00,1.2063
6835.00,1.2068
6834.00,1.2069
6833.00,1.2069
6832.00,1.2066
6831.00,1.2059
6830.00,1.2045
6829.00,1.2025
6828.00,1.1997
6827.00,1.1967
6826.00,1.1939
6825.00,1.1914
6824.00,1.1889
6823.00,1.1862
6822.00,1.1832
6821.00,1.1800
6820.00,1.1760
6819.00,1.1709
6818.00,1.1648
6817.00,1.1582
6816.00,1.1515
6815.00,1.1446
6814.00,1.1377
6813.00,1.1308
6812.00,1.1240
6811.00,1.1169
6810.00,1.1096
6809.00,1.1018
6808.00,1.0935
6807.00,1.0849
6806.00,1.0758
6805.00,1.0662
6804.00,1.0563
6803.00,1.0465
6802.00,1.0372
6801.00,1.0281
6800.00,1.0188
6799.00,1.0090
6798.00,0.9991
6797.00,0.9891
6796.00,0.9788
6795.00,0.9680
6794.00,0.9570
6793.00,0.9464
6792.00,0.9362
6791.00,0.9262
6790.00,0.9162
6789.00,0.9062
6788.00,0.8964
6787.00,0.8867
6786.00,0.8772
6785.00,0.8679
6784.00,0.8590
6783.00,0.8504
6782.00,0.8421
6781.00,0.8341
6780.00,0.8265
6779.00,0.8194
6778.00,0.8129
6777.00,0.8068
6776.00,0.8012
6775.00,0.7959
6774.00,0.7911
6773.00,0.7868
6772.00,0.7831
6771.00,0.7799
6770.00,0.7773
6769.00,0.7755
6768.00,0.7743
6767.00,0.7740
6766.00,0.7742
6765.00,0.7749
6764.00,0.7761
6763.00,0.7777
6762.00,0.7800
6761.00,0.7832
6760.00,0.7870
6759.00,0.7912
6758.00,0.7959
6757.00,0.8012
6756.00,0.8071
6755.00,0.8135
6754.00,0.8201
6753.00,0.8271
6752.00,0.8345
6751.00,0.8423
6750.00,0.8505
6749.00,0.8590
6748.00,0.8678
6747.00,0.8769
6746.00,0.8862
6745.00,0.8958
6744.00,0.9055
6743.00,0.9152
6742.00,0.9249
6741.00,0.9348
6740.00,0.9448
6739.00,0.9548
6738.00,0.9652
6737.00,0.9757
6736.00,0.9864
6735.00,0.9969
6734.00,1.0070
6733.00,1.0170
6732.00,1.0268
6731.00,1.0366
6730.00,1.0461
6729.00,1.0555
6728.00,1.0649
6727.00,1.0744
6726.00,1.0840
6725.00,1.0935
6724.00,1.1028
6723.00,1.1119
6722.00,1.1209
6721.00,1.1295
6720.00,1.1375
6719.00,1.1448
6718.00,1.1517
6717.00,1.1588
6716.00,1.1658
6715.00,1.1726
6714.00,1.1792
6713.00,1.1855
6712.00,1.1914
6711.00,1.1966
6710.00,1.2009
6709.00,1.2046
6708.00,1.2081
6707.00,1.2117
6706.00,1.2153
6705.00,1.2188
6704.00,1.2219
6703.00,1.2244
6702.00,1.2264
6701.00,1.2280
6700.00,1.2291
6699.00,1.2294
6698.00,1.2293
6697.00,1.2292
6696.00,1.2291
6695.00,1.2285
6694.00,1.2272
6693.00,1.2258
6692.00,1.2244
6691.00,1.2228
6690.00,1.2202
6689.00,1.2168
6688.00,1.2128
6687.00,1.2083
6686.00,1.2034
6685.00,1.1983
6684.00,1.1930
6683.00,1.1875
6682.00,1.1820
6681.00,1.1763
6680.00,1.1705
6679.00,1.1644
6678.00,1.1577
6677.00,1.1502
6676.00,1.1422
6675.00,1.1338
6674.00,1.1251
6673.00,1.1162
6672.00,1.1070
6671.00,1.0979
6670.00,1.0888
6669.00,1.0795
6668.00,1.0699
6667.00,1.0598
6666.00,1.0494
6665.00,1.0389
6664.00,1.0283
6663.00,1.0177
6662.00,1.0069
6661.00,0.9959
6660.00,0.9849
6659.00,0.9740
6658.00,0.9633
6657.00,0.9524
6656.00,0.9415
6655.00,0.9308
6654.00,0.9203
6653.00,0.9103
6652.00,0.9003
6651.00,0.8903
6650.00,0.8804
6649.00,0.8710
6648.00,0.8620
6647.00,0.8531
6646.00,0.8444
6645.00,0.8361
6644.00,0.8284
6643.00,0.8212
6642.00,0.8146
6641.00,0.8084
6640.00,0.8025
6639.00,0.7971
6638.00,0.7922
6637.00,0.7880
6636.00,0.7846
6635.00,0.7820
6634.00,0.7800
6633.00,0.7787
6632.00,0.7779
6631.00,0.7777
6630.00,0.7780
6629.00,0.7789
6628.00,0.7804
6627.00,0.7826
6626.00,0.7856
6625.00,0.7892
6624.00,0.7935
6623.00,0.7984
6622.00,0.8038
6621.00,0.8096
6620.00,0.8158
6619.00,0.8226
6618.00,0.8299
6617.00,0.8376
6616.00,0.8456
6615.00,0.8537
6614.00,0.8622
6613.00,0.8711
6612.00,0.8803
6611.00,0.8897
6610.00,0.8994
6609.00,0.9094
6608.00,0.9196
6607.00,0.9299
6606.00,0.9401
6605.00,0.9502
6604.00,0.9601
6603.00,0.9699
6602.00,0.9797
6601.00,0.9897
6600.00,0.9999
6599.00,1.0101
6598.00,1.0205
6597.00,1.0310
6596.00,1.0414
6595.00,1.0515
6594.00,1.0612
6593.00,1.0707
6592.00,1.0798
6591.00,1.0886
6590.00,1.0971
6589.00,1.1055
6588.00,1.1140
6587.00,1.1225
6586.00,1.1308
6585.00,1.1387
6584.00,1.1461
6583.00,1.1531
6582.00,1.1599
6581.00,1.1662
6580.00,1.1719
6579.00,1.1772
6578.00,1.1826
6577.00,1.1881
6576.00,1.1933
6575.00,1.1978
6574.00,1.2016
6573.00,1.2052
6572.00,1.2085
6571.00,1.2114
6570.00,1.2140
6569.00,1.2164
6568.00,1.2184
6567.00,1.2198
6566.00,1.2206
6565.00,1.2208
6564.00,1.2206
6563.00,1.2198
6562.00,1.2187
6561.00,1.2173
6560.00,1.2160
6559.00,1.2146
6558.00,1.2126
6557.00,1.2100
6556.00,1.2071
6555.00,1.2039
6554.00,1.2005
6553.00,1.1967
6552.00,1.1926
6551.00,1.1882
6550.00,1.1835
6549.00,1.1784
6548.00,1.1728
6547.00,1.1669
6546.00,1.1610
6545.00,1.1548
6544.00,1.1482
6543.00,1.1415
6542.00,1.1345
6541.00,1.1273
6540.00,1.1197
6539.00,1.1114
6538.00,1.1028
6537.00,1.0939
6536.00,1.0847
6535.00,1.0753
6534.00,1.0657
6533.00,1.0559
6532.00,1.0462
6531.00,1.0364
6530.00,1.0267
6529.00,1.0168
6528.00,1.0068
6527.00,0.9967
6526.00,0.9864
6525.00,0.9761
6524.00,0.9657
6523.00,0.9551
6522.00,0.9444
6521.00,0.9337
6520.00,0.9231
6519.00,0.9125
6518.00,0.9021
6517.00,0.8919
6516.00,0.8820
6515.00,0.8724
6514.00,0.8631
6513.00,0.8541
6512.00,0.8454
6511.00,0.8370
6510.00,0.8291
6509.00,0.8214
6508.00,0.8141
6507.00,0.8072
6506.00,0.8007
6505.00,0.7947
6504.00,0.7891
6503.00,0.7842
6502.00,0.7802
6501.00,0.7771
6500.00,0.7747
6499.00,0.7728
6498.00,0.7714
6497.00,0.7708
6496.00,0.7708
6495.00,0.7713
6494.00,0.7723
6493.00,0.7740
6492.00,0.7765
6491.00,0.7798
6490.00,0.7836
6489.00,0.7878
6488.00,0.7925
6487.00,0.7978
6486.00,0.8038
6485.00,0.8105
6484.00,0.8178
6483.00,0.8255
6482.00,0.8336
6481.00,0.8422
6480.00,0.8511
6479.00,0.8601
6478.00,0.8692
6477.00,0.8785
6476.00,0.8880
6475.00,0.8979
6474.00,0.9080
6473.00,0.9184
6472.00,0.9289
6471.00,0.9395
6470.00,0.9503
6469.00,0.9612
6468.00,0.9719
6467.00,0.9825
6466.00,0.9933
6465.00,1.0042
6464.00,1.0154
6463.00,1.0265
6462.00,1.0375
6461.00,1.0485
6460.00,1.0594
6459.00,1.0701
6458.00,1.0805
6457.00,1.0907
6456.00,1.1006
6455.00,1.1100
6454.00,1.1189
6453.00,1.1274
6452.00,1.1356
6451.00,1.1436
6450.00,1.1516
6449.00,1.1597
6448.00,1.1680
6447.00,1.1762
6446.00,1.1841
6445.00,1.1916
6444.00,1.1985
6443.00,1.2049
6442.00,1.2105
6441.00,1.2158
6440.00,1.2210
6439.00,1.2259
6438.00,1.2301
6437.00,1.2337
6436.00,1.2369
6435.00,1.2401
6434.00,1.2431
6433.00,1.2457
6432.00,1.2479
6431.00,1.2499
6430.00,1.2515
6429.00,1.2525
6428.00,1.2528
6427.00,1.2527
6426.00,1.2523
6425.00,1.2516
6424.00,1.2505
6423.00,1.2492
6422.00,1.2479
6421.00,1.2462
6420.00,1.2438
6419.00,1.2406
6418.00,1.2367
6417.00,1.2324
6416.00,1.2276
6415.00,1.2224
6414.00,1.2165
6413.00,1.2104
6412.00,1.2044
6411.00,1.1988
6410.00,1.1930
6409.00,1.1867
6408.00,1.1796
6407.00,1.1721
6406.00,1.1644
6405.00,1.1564
6404.00,1.1476
6403.00,1.1383
6402.00,1.1287
6401.00,1.1190
6400.00,1.1093
6399.00,1.0993
6398.00,1.0890
6397.00,1.0786
6396.00,1.0680
6395.00,1.0571
6394.00,1.0460
6393.00,1.0347
6392.00,1.0233
6391.00,1.0118
6390.00,1.0002
6389.00,0.9887
6388.00,0.9772
6387.00,0.9656
6386.00,0.9541
6385.00,0.9425
6384.00,0.9310
6383.00,0.9197
6382.00,0.9086
6381.00,0.8978
6380.00,0.8872
6379.00,0.8768
6378.00,0.8668
6377.00,0.8571
6376.00,0.8476
6375.00,0.8385
6374.00,0.8299
6373.00,0.8218
6372.00,0.8143
6371.00,0.8074
6370.00,0.8011
6369.00,0.7956
6368.00,0.7906
6367.00,0.7862
6366.00,0.7823
6365.00,0.7791
6364.00,0.7766
6363.00,0.7748
6362.00,0.7737
6361.00,0.7733
6360.00,0.7737
6359.00,0.7746
6358.00,0.7763
6357.00,0.7786
6356.00,0.7817
6355.00,0.7853
6354.00,0.7896
6353.00,0.7946
6352.00,0.8002
6351.00,0.8062
6350.00,0.8126
6349.00,0.8194
6348.00,0.8268
6347.00,0.8348
6346.00,0.8434
6345.00,0.8526
6344.00,0.8620
6343.00,0.8717
6342.00,0.8816
6341.00,0.8915
6340.00,0.9016
6339.00,0.9118
6338.00,0.9222
6337.00,0.9329
6336.00,0.9437
6335.00,0.9544
6334.00,0.9653
6333.00,0.9762
6332.00,0.9871
6331.00,0.9980
6330.00,1.0090
6329.00,1.0200
6328.00,1.0309
6327.00,1.0418
6326.00,1.0526
6325.00,1.0633
6324.00,1.0737
6323.00,1.0838
6322.00,1.0937
6321.00,1.1033
6320.00,1.1127
6319.00,1.1217
6318.00,1.1307
6317.00,1.1398
6316.00,1.1489
6315.00,1.1576
6314.00,1.1657
6313.00,1.1731
6312.00,1.1801
6311.00,1.1867
6310.00,1.1928
6309.00,1.1985
6308.00,1.2038
6307.00,1.2090
6306.00,1.2140
6305.00,1.2188
6304.00,1.2230
6303.00,1.2268
6302.00,1.2304
6301.00,1.2337
6300.00,1.2366
6299.00,1.2389
6298.00,1.2408
6297.00,1.2423
6296.00,1.2435
6295.00,1.2444
6294.00,1.2452
6293.00,1.2456
6292.00,1.2454
6291.00,1.2448
6290.00,1.2437
6289.00,1.2421
6288.00,1.2399
6287.00,1.2370
6286.00,1.2339
6285.00,1.2306
6284.00,1.2273
6283.00,1.2238
6282.00,1.2201
6281.00,1.2164
6280.00,1.2124
6279.00,1.2080
6278.00,1.2029
6277.00,1.1971
6276.00,1.1906
6275.00,1.1835
6274.00,1.1762
6273.00,1.1687
6272.00,1.1611
6271.00,1.1533
6270.00,1.1453
6269.00,1.1372
6268.00,1.1287
6267.00,1.1199
6266.00,1.1108
6265.00,1.1014
6264.00,1.0916
6263.00,1.0816
6262.00,1.0716
6261.00,1.0614
6260.00,1.0510
6259.00,1.0403
6258.00,1.0294
6257.00,1.0183
6256.00,1.0070
6255.00,0.9955
6254.00,0.9837
6253.00,0.9719
6252.00,0.9602
6251.00,0.9487
6250.00,0.9374
6249.00,0.9265
6248.00,0.9155
6247.00,0.9046
6246.00,0.8937
6245.00,0.8831
6244.00,0.8726
6243.00,0.8622
6242.00,0.8522
6241.00,0.8427
6240.00,0.8338
6239.00,0.8253
6238.00,0.8173
6237.00,0.8099
6236.00,0.8029
6235.00,0.7964
6234.00,0.7905
6233.00,0.7853
6232.00,0.7807
6231.00,0.7766
6230.00,0.7732
6229.00,0.7707
6228.00,0.7690
6227.00,0.7681
6226.00,0.7680
6225.00,0.7684
6224.00,0.7694
6223.00,0.7711
6222.00,0.7735
6221.00,0.7767
6220.00,0.7807
6219.00,0.7853
6218.00,0.7907
6217.00,0.7967
6216.00,0.8031
6215.00,0.8098
6214.00,0.8171
6213.00,0.8250
6212.00,0.8334
6211.00,0.8422
6210.00,0.8514
6209.00,0.8610
6208.00,0.8709
6207.00,0.8809
6206.00,0.8911
6205.00,0.9018
6204.00,0.9128
6203.00,0.9241
6202.00,0.9354
6201.00,0.9466
6200.00,0.9580
6199.00,0.9694
6198.00,0.9809
6197.00,0.9923
6196.00,1.0037
6195.00,1.0152
6194.00,1.0269
6193.00,1.0385
6192.00,1.0498
6191.00,1.0609
6190.00,1.0719
6189.00,1.0830
6188.00,1.0940
6187.00,1.1048
6186.00,1.1155
6185.00,1.1263
6184.00,1.1368
6183.00,1.1468
6182.00,1.1561
6181.00,1.1650
6180.00,1.1736
6179.00,1.1821
6178.00,1.1903
6177.00,1.1981
6176.00,1.2055
