Created as New Dataset,Sample 011 By Administrator Date Wednesday, November 24 2021
cm-1,A
7502.00,0.7116
7501.00,0.7203
7500.00,0.7290
7499.00,0.7377
7498.00,0.7461
7497.00,0.7544
7496.00,0.7625
7495.00,0.7697
7494.00,0.7761
7493.00,0.7819
7492.00,0.7877
7491.00,0.7935
7490.00,0.7992
7489.00,0.8044
7488.00,0.8093
7487.00,0.8144
7486.00,0.8195
7485.00,0.8245
7484.00,0.8292
7483.00,0.8335
7482.00,0.8379
7481.00,0.8428
7480.00,0.8478
7479.00,0.8523
7478.00,0.8558
7477.00,0.8585
7476.00,0.8611
7475.00,0.8636
7474.00,0.8658
7473.00,0.8678
7472.00,0.8700
7471.00,0.8723
7470.00,0.8741
7469.00,0.8744
7468.00,0.8734
7467.00,0.8720
7466.00,0.8708
7465.00,0.8696
7464.00,0.8678
7463.00,0.8654
7462.00,0.8633
7461.00,0.8619
7460.00,0.8609
7459.00,0.8597
7458.00,0.8579
7457.00,0.8553
7456.00,0.8523
7455.00,0.8488
7454.00,0.8449
7453.00,0.8404
7452.00,0.8351
7451.00,0.8290
7450.00,0.8225
7449.00,0.8163
7448.00,0.8104
7447.00,0.8045
7446.00,0.7984
7445.00,0.7920
7444.00,0.7851
7443.00,0.7775
7442.00,0.7696
7441.00,0.7616
7440.00,0.7536
7439.00,0.7454
7438.00,0.7372
7437.00,0.7290
7436.00,0.7212
7435.00,0.7137
7434.00,0.7066
7433.00,0.6994
7432.00,0.6915
7431.00,0.6830
7430.00,0.6743
7429.00,0.6661
7428.00,0.6583
7427.00,0.6508
7426.00,0.6436
7425.00,0.6368
7424.00,0.6303
7423.00,0.6240
7422.00,0.6176
7421.00,0.6112
7420.00,0.6051
7419.00,0.5993
7418.00,0.5939
7417.00,0.5892
7416.00,0.5854
7415.00,0.5828
7414.00,0.5809
7413.00,0.5794
7412.00,0.5780
7411.00,0.5768
7410.00,0.5759
7409.00,0.5753
7408.00,0.5749
7407.00,0.5749
7406.00,0.5753
7405.00,0.5763
7404.00,0.5780
7403.00,0.5802
7402.00,0.5829
7401.00,0.5861
7400.00,0.5895
7399.00,0.5930
7398.00,0.5969
7397.00,0.6015
7396.00,0.6067
7395.00,0.6122
7394.00,0.6178
7393.00,0.6238
7392.00,0.6301
7391.00,0.6368
7390.00,0.6436
7389.00,0.6505
7388.00,0.6574
7387.00,0.6644
7386.00,0.6716
7385.00,0.6791
7384.00,0.6867
7383.00,0.6946
7382.00,0.7028
7381.00,0.7115
7380.00,0.7206
7379.00,0.7295
7378.00,0.7379
7377.00,0.7464
7376.00,0.7553
7375.00,0.7643
7374.00,0.7725
7373.00,0.7800
7372.00,0.7875
7371.00,0.7954
7370.00,0.8035
7369.00,0.8111
7368.00,0.8184
7367.00,0.8259
7366.00,0.8336
7365.00,0.8410
7364.00,0.8481
7363.00,0.8550
7362.00,0.8622
7361.00,0.8694
7360.00,0.8759
7359.00,0.8817
7358.00,0.8870
7357.00,0.8925
7356.00,0.8983
7355.00,0.9044
7354.00,0.9107
7353.00,0.9170
7352.00,0.9230
7351.00,0.9283
7350.00,0.9329
7349.00,0.9370
7348.00,0.9407
7347.00,0.9437
7346.00,0.9462
7345.00,0.9486
7344.00,0.9509
7343.00,0.9532
7342.00,0.9556
7341.00,0.9583
7340.00,0.9611
7339.00,0.9632
7338.00,0.9643
7337.00,0.9647
7336.00,0.9646
7335.00,0.9642
7334.00,0.9632
7333.00,0.9617
7332.00,0.9601
7331.00,0.9587
7330.00,0.9576
7329.00,0.9565
7328.00,0.9556
7327.00,0.9549
7326.00,0.9543
7325.00,0.9530
7324.00,0.9505
7323.00,0.9470
7322.00,0.9430
7321.00,0.9390
7320.00,0.9348
7319.00,0.9301
7318.00,0.9253
7317.00,0.9210
7316.00,0.9170
7315.00,0.9131
7314.00,0.9088
7313.00,0.9041
7312.00,0.8989
7311.00,0.8931
7310.00,0.8865
7309.00,0.8796
7308.00,0.8730
7307.00,0.8668
7306.00,0.8608
7305.00,0.8546
7304.00,0.8482
7303.00,0.8418
7302.00,0.8356
7301.00,0.8296
7300.00,0.8234
7299.00,0.8164
7298.00,0.8086
7297.00,0.8003
7296.00,0.7921
7295.00,0.7840
7294.00,0.7759
7293.00,0.7674
7292.00,0.7586
7291.00,0.7498
7290.00,0.7414
7289.00,0.7335
7288.00,0.7261
7287.00,0.7190
7286.00,0.7121
7285.00,0.7056
7284.00,0.6994
7283.00,0.6935
7282.00,0.6878
7281.00,0.6822
7280.00,0.6768
7279.00,0.6718
7278.00,0.6673
7277.00,0.6635
7276.00,0.6600
7275.00,0.6568
7274.00,0.6540
7273.00,0.6517
7272.00,0.6497
7271.00,0.6482
7270.00,0.6471
7269.00,0.6468
7268.00,0.6470
7267.00,0.6477
7266.00,0.6487
7265.00,0.6501
7264.00,0.6520
7263.00,0.6543
7262.00,0.6572
7261.00,0.6607
7260.00,0.6646
7259.00,0.6688
7258.00,0.6730
7257.00,0.6773
7256.00,0.6819
7255.00,0.6867
7254.00,0.6919
7253.00,0.6974
7252.00,0.7031
7251.00,0.7091
7250.00,0.7157
7249.00,0.7232
7248.00,0.7310
7247.00,0.7384
7246.00,0.7456
7245.00,0.7532
7244.00,0.7615
7243.00,0.7705
7242.00,0.7795
7241.00,0.7882
7240.00,0.7966
7239.00,0.8051
7238.00,0.8136
7237.00,0.8219
7236.00,0.8300
7235.00,0.8380
7234.00,0.8462
7233.00,0.8550
7232.00,0.8642
7231.00,0.8731
7230.00,0.8814
7229.00,0.8892
7228.00,0.8968
7227.00,0.9045
7226.00,0.9125
7225.00,0.9208
7224.00,0.9289
7223.00,0.9366
7222.00,0.9440
7221.00,0.9510
7220.00,0.9577
7219.00,0.9641
7218.00,0.9705
7217.00,0.9770
7216.00,0.9835
7215.00,0.9898
7214.00,0.9960
7213.00,1.0020
7212.00,1.0077
7211.00,1.0129
7210.00,1.0176
7209.00,1.0221
7208.00,1.0264
7207.00,1.0306
7206.00,1.0347
7205.00,1.0390
7204.00,1.0434
7203.00,1.0477
7202.00,1.0514
7201.00,1.0547
7200.00,1.0577
7199.00,1.0605
7198.00,1.0629
7197.00,1.0647
7196.00,1.0657
7195.00,1.0661
7194.00,1.0666
7193.00,1.0671
7192.00,1.0674
7191.00,1.0673
7190.00,1.0669
7189.00,1.0665
7188.00,1.0661
7187.00,1.0653
7186.00,1.0639
7185.00,1.0621
7184.00,1.0601
7183.00,1.0579
7182.00,1.0554
7181.00,1.0528
7180.00,1.0501
7179.00,1.0471
7178.00,1.0432
7177.00,1.0385
7176.00,1.0332
7175.00,1.0277
7174.00,1.0221
7173.00,1.0161
7172.00,1.0094
7171.00,1.0022
7170.00,0.9949
7169.00,0.9876
7168.00,0.9802
7167.00,0.9725
7166.00,0.9647
7165.00,0.9568
7164.00,0.9486
7163.00,0.9401
7162.00,0.9318
7161.00,0.9237
7160.00,0.9155
7159.00,0.9069
7158.00,0.8980
7157.00,0.8892
7156.00,0.8803
7155.00,0.8712
7154.00,0.8618
7153.00,0.8523
7152.00,0.8430
7151.00,0.8337
7150.00,0.8246
7149.00,0.8158
7148.00,0.8074
7147.00,0.7994
7146.00,0.7919
7145.00,0.7849
7144.00,0.7783
7143.00,0.7718
7142.00,0.7653
7141.00,0.7589
7140.00,0.7528
7139.00,0.7470
7138.00,0.7416
7137.00,0.7364
7136.00,0.7315
7135.00,0.7269
7134.00,0.7229
7133.00,0.7196
7132.00,0.7170
7131.00,0.7150
7130.00,0.7135
7129.00,0.7128
7128.00,0.7129
7127.00,0.7134
7126.00,0.7142
7125.00,0.7150
7124.00,0.7163
7123.00,0.7182
7122.00,0.7206
7121.00,0.7232
7120.00,0.7262
7119.00,0.7297
7118.00,0.7341
7117.00,0.7392
7116.00,0.7445
7115.00,0.7498
7114.00,0.7553
7113.00,0.7612
7112.00,0.7676
7111.00,0.7742
7110.00,0.7812
7109.00,0.7885
7108.00,0.7959
7107.00,0.8033
7106.00,0.8109
7105.00,0.8186
7104.00,0.8263
7103.00,0.8340
7102.00,0.8419
7101.00,0.8501
7100.00,0.8583
7099.00,0.8665
7098.00,0.8750
7097.00,0.8839
7096.00,0.8930
7095.00,0.9021
7094.00,0.9108
7093.00,0.9194
7092.00,0.9277
7091.00,0.9355
7090.00,0.9428
7089.00,0.9496
7088.00,0.9563
7087.00,0.9632
7086.00,0.9704
7085.00,0.9781
7084.00,0.9858
7083.00,0.9931
7082.00,1.0002
7081.00,1.0073
7080.00,1.0144
7079.00,1.0212
7078.00,1.0275
7077.00,1.0333
7076.00,1.0389
7075.00,1.0440
7074.00,1.0487
7073.00,1.0531
7072.00,1.0578
7071.00,1.0625
7070.00,1.0671
7069.00,1.0718
7068.00,1.0765
7067.00,1.0811
7066.00,1.0850
7065.00,1.0880
7064.00,1.0903
7063.00,1.0926
7062.00,1.0952
7061.00,1.0979
7060.00,1.1005
7059.00,1.1024
7058.00,1.1036
7057.00,1.1041
7056.00,1.1041
7055.00,1.1038
7054.00,1.1033
7053.00,1.1028
7052.00,1.1024
7051.00,1.1018
7050.00,1.1005
7049.00,1.0986
7048.00,1.0963
7047.00,1.0938
7046.00,1.0913
7045.00,1.0884
7044.00,1.0847
7043.00,1.0806
7042.00,1.0762
7041.00,1.0716
7040.00,1.0668
7039.00,1.0615
7038.00,1.0559
7037.00,1.0504
7036.00,1.0452
7035.00,1.0398
7034.00,1.0339
7033.00,1.0270
7032.00,1.0195
7031.00,1.0118
7030.00,1.0044
7029.00,0.9971
7028.00,0.9896
7027.00,0.9815
7026.00,0.9730
7025.00,0.9645
7024.00,0.9557
7023.00,0.9464
7022.00,0.9368
7021.00,0.9272
7020.00,0.9178
7019.00,0.9086
7018.00,0.8994
7017.00,0.8900
7016.00,0.8804
7015.00,0.8707
7014.00,0.8611
7013.00,0.8518
7012.00,0.8429
7011.00,0.8343
7010.00,0.8262
7009.00,0.8185
7008.00,0.8110
7007.00,0.8034
7006.00,0.7956
7005.00,0.7878
7004.00,0.7800
7003.00,0.7725
7002.00,0.7654
7001.00,0.7588
7000.00,0.7529
6999.00,0.7475
6998.00,0.7426
6997.00,0.7384
6996.00,0.7345
6995.00,0.7310
6994.00,0.7278
6993.00,0.7252
6992.00,0.7231
6991.00,0.7215
6990.00,0.7204
6989.00,0.7197
6988.00,0.7195
6987.00,0.7196
6986.00,0.7203
6985.00,0.7217
6984.00,0.7236
6983.00,0.7259
6982.00,0.7287
6981.00,0.7321
6980.00,0.7360
6979.00,0.7403
6978.00,0.7448
6977.00,0.7496
6976.00,0.7546
6975.00,0.7601
6974.00,0.7660
6973.00,0.7725
6972.00,0.7795
6971.00,0.7868
6970.00,0.7942
6969.00,0.8016
6968.00,0.8092
6967.00,0.8169
6966.00,0.8249
6965.00,0.8331
6964.00,0.8413
6963.00,0.8493
6962.00,0.8574
6961.00,0.8657
6960.00,0.8740
6959.00,0.8823
6958.00,0.8906
6957.00,0.8993
6956.00,0.9082
6955.00,0.9170
6954.00,0.9257
6953.00,0.9343
6952.00,0.9430
6951.00,0.9514
6950.00,0.9595
6949.00,0.9675
6948.00,0.9757
6947.00,0.9838
6946.00,0.9916
6945.00,0.9991
6944.00,1.0067
6943.00,1.0146
6942.00,1.0226
6941.00,1.0305
6940.00,1.0381
6939.00,1.0452
6938.00,1.0518
6937.00,1.0581
6936.00,1.0643
6935.00,1.0705
6934.00,1.0764
6933.00,1.0819
6932.00,1.0873
6931.00,1.0927
6930.00,1.0978
6929.00,1.1024
6928.00,1.1069
6927.00,1.1115
6926.00,1.1163
6925.00,1.1210
6924.00,1.1254
6923.00,1.1293
6922.00,1.1329
6921.00,1.1361
6920.00,1.1387
6919.00,1.1408
6918.00,1.1425
6917.00,1.1440
6916.00,1.1452
6915.00,1.1462
6914.00,1.1467
6913.00,1.1468
6912.00,1.1469
6911.00,1.1470
6910.00,1.1468
6909.00,1.1460
6908.00,1.1444
6907.00,1.1426
6906.00,1.1406
6905.00,1.1382
6904.00,1.1351
6903.00,1.1313
6902.00,1.1272
6901.00,1.1232
6900.00,1.1191
6899.00,1.1147
6898.00,1.1098
6897.00,1.1047
6896.00,1.0998
6895.00,1.0948
6894.00,1.0893
6893.00,1.0831
6892.00,1.0762
6891.00,1.0690
6890.00,1.0616
6889.00,1.0542
6888.00,1.0464
6887.00,1.0384
6886.00,1.0302
6885.00,1.0219
6884.00,1.0134
6883.00,1.0046
6882.00,0.9955
6881.00,0.9861
6880.00,0.9765
6879.00,0.9668
6878.00,0.9572
6877.00,0.9473
6876.00,0.9372
6875.00,0.9271
6874.00,0.9172
6873.00,0.9076
6872.00,0.8981
6871.00,0.8887
6870.00,0.8794
6869.00,0.8702
6868.00,0.8612
6867.00,0.8523
6866.00,0.8437
6865.00,0.8354
6864.00,0.8274
6863.00,0.8200
6862.00,0.8129
6861.00,0.8061
6860.00,0.7994
6859.00,0.7931
6858.00,0.7872
6857.00,0.7818
6856.00,0.7769
6855.00,0.7724
6854.00,0.7685
6853.00,0.7653
6852.00,0.7628
6851.00,0.7608
6850.00,0.7593
6849.00,0.7583
6848.00,0.7577
6847.00,0.7577
6846.00,0.7580
6845.00,0.7589
6844.00,0.7603
6843.00,0.7624
6842.00,0.7652
6841.00,0.7686
6840.00,0.7724
6839.00,0.7766
6838.00,0.7811
6837.00,0.7860
6836.00,0.7911
6835.00,0.7967
6834.00,0.8028
6833.00,0.8094
6832.00,0.8163
6831.00,0.8233
6830.00,0.8305
6829.00,0.8379
6828.00,0.8455
6827.00,0.8530
6826.00,0.8608
6825.00,0.8689
6824.00,0.8772
6823.00,0.8856
6822.00,0.8940
6821.00,0.9023
6820.00,0.9108
6819.00,0.9193
6818.00,0.9280
6817.00,0.9367
6816.00,0.9454
6815.00,0.9539
6814.00,0.9623
6813.00,0.9707
6812.00,0.9791
6811.00,0.9875
6810.00,0.9959
6809.00,1.0043
6808.00,1.0125
6807.00,1.0204
6806.00,1.0282
6805.00,1.0359
6804.00,1.0431
6803.00,1.0499
6802.00,1.0565
6801.00,1.0634
6800.00,1.0702
6799.00,1.0764
6798.00,1.0819
6797.00,1.0872
6796.00,1.0926
6795.00,1.0979
6794.00,1.1031
6793.00,1.1080
6792.00,1.1127
6791.00,1.1170
6790.00,1.1210
6789.00,1.1248
6788.00,1.1285
6787.00,1.1322
6786.00,1.1357
6785.00,1.1392
6784.00,1.1426
6783.00,1.1456
6782.00,1.1482
6781.00,1.1503
6780.00,1.1519
6779.00,1.1530
6778.00,1.1537
6777.00,1.1543
6776.00,1.1547
6775.00,1.1545
6774.00,1.1536
6773.00,1.1522
6772.00,1.1506
6771.00,1.1488
6770.00,1.1467
6769.00,1.1444
6768.00,1.1423
6767.00,1.1402
6766.00,1.1378
6765.00,1.1349
6764.00,1.1313
6763.00,1.1271
6762.00,1.1223
6761.00,1.1168
6760.00,1.1107
6759.00,1.1042
6758.00,1.0976
6757.00,1.0912
6756.00,1.0848
6755.00,1.0784
6754.00,1.0715
6753.00,1.0641
6752.00,1.0563
6751.00,1.0482
6750.00,1.0398
6749.00,1.0313
6748.00,1.0226
6747.00,1.0137
6746.00,1.0044
6745.00,0.9948
6744.00,0.9852
6743.00,0.9755
6742.00,0.9657
6741.00,0.9557
6740.00,0.9459
6739.00,0.9362
6738.00,0.9266
6737.00,0.9168
6736.00,0.9066
6735.00,0.8965
6734.00,0.8868
6733.00,0.8776
6732.00,0.8686
6731.00,0.8597
6730.00,0.8509
6729.00,0.8424
6728.00,0.8339
6727.00,0.8253
6726.00,0.8169
6725.00,0.8089
6724.00,0.8015
6723.00,0.7946
6722.00,0.7881
6721.00,0.7820
6720.00,0.7763
6719.00,0.7709
6718.00,0.7659
6717.00,0.7613
6716.00,0.7572
6715.00,0.7536
6714.00,0.7505
6713.00,0.7480
6712.00,0.7460
6711.00,0.7443
6710.00,0.7432
6709.00,0.7426
6708.00,0.7426
6707.00,0.7432
6706.00,0.7443
6705.00,0.7461
6704.00,0.7485
6703.00,0.7513
6702.00,0.7545
6701.00,0.7581
6700.00,0.7621
6699.00,0.7665
6698.00,0.7712
6697.00,0.7764
6696.00,0.7819
6695.00,0.7878
6694.00,0.7940
6693.00,0.8006
6692.00,0.8076
6691.00,0.8149
6690.00,0.8226
6689.00,0.8305
6688.00,0.8387
6687.00,0.8470
6686.00,0.8556
6685.00,0.8643
6684.00,0.8731
6683.00,0.8818
6682.00,0.8904
6681.00,0.8992
6680.00,0.9082
6679.00,0.9171
6678.00,0.9259
6677.00,0.9348
6676.00,0.9438
6675.00,0.9529
6674.00,0.9620
6673.00,0.9713
6672.00,0.9806
6671.00,0.9899
6670.00,0.9988
6669.00,1.0071
6668.00,1.0150
6667.00,1.0226
6666.00,1.0302
6665.00,1.0381
6664.00,1.0460
6663.00,1.0541
6662.00,1.0622
6661.00,1.0703
6660.00,1.0780
6659.00,1.0851
6658.00,1.0917
6657.00,1.0982
6656.00,1.1047
6655.00,1.1110
6654.00,1.1169
6653.00,1.1225
6652.00,1.1279
6651.00,1.1332
6650.00,1.1386
6649.00,1.1440
6648.00,1.1492
6647.00,1.1540
6646.00,1.1582
6645.00,1.1619
6644.00,1.1651
6643.00,1.1680
6642.00,1.1706
6641.00,1.1730
6640.00,1.1754
6639.00,1.1776
6638.00,1.1793
6637.00,1.1805
6636.00,1.1814
6635.00,1.1820
6634.00,1.1825
6633.00,1.1826
6632.00,1.1821
6631.00,1.1811
6630.00,1.1797
6629.00,1.1780
6628.00,1.1757
6627.00,1.1732
6626.00,1.1706
6625.00,1.1682
6624.00,1.1656
6623.00,1.1625
6622.00,1.1587
6621.00,1.1546
6620.00,1.1502
6619.00,1.1455
6618.00,1.1400
6617.00,1.1339
6616.00,1.1274
6615.00,1.1210
6614.00,1.1145
6613.00,1.1077
6612.00,1.1005
6611.00,1.0931
6610.00,1.0855
6609.00,1.0774
6608.00,1.0685
6607.00,1.0591
6606.00,1.0495
6605.00,1.0398
6604.00,1.0302
6603.00,1.0206
6602.00,1.0111
6601.00,1.0016
6600.00,0.9919
6599.00,0.9818
6598.00,0.9713
6597.00,0.9608
6596.00,0.9504
6595.00,0.9399
6594.00,0.9294
6593.00,0.9192
6592.00,0.9093
6591.00,0.8996
6590.00,0.8898
6589.00,0.8797
6588.00,0.8697
6587.00,0.8600
6586.00,0.8506
6585.00,0.8416
6584.00,0.8331
6583.00,0.8251
6582.00,0.8175
6581.00,0.8103
6580.00,0.8034
6579.00,0.7969
6578.00,0.7908
6577.00,0.7853
6576.00,0.7805
6575.00,0.7762
6574.00,0.7723
6573.00,0.7689
6572.00,0.7660
6571.00,0.7636
6570.00,0.7618
6569.00,0.7607
6568.00,0.7603
6567.00,0.7607
6566.00,0.7618
6565.00,0.7633
6564.00,0.7652
6563.00,0.7675
6562.00,0.7702
6561.00,0.7735
6560.00,0.7774
6559.00,0.7820
6558.00,0.7871
6557.00,0.7929
6556.00,0.7990
6555.00,0.8055
6554.00,0.8124
6553.00,0.8195
6552.00,0.8268
6551.00,0.8341
6550.00,0.8416
6549.00,0.8495
6548.00,0.8576
6547.00,0.8659
6546.00,0.8744
6545.00,0.8831
6544.00,0.8920
6543.00,0.9009
6542.00,0.9098
6541.00,0.9186
6540.00,0.9274
6539.00,0.9363
6538.00,0.9454
6537.00,0.9546
6536.00,0.9637
6535.00,0.9727
6534.00,0.9816
6533.00,0.9905
6532.00,0.9993
6531.00,1.0079
6530.00,1.0164
6529.00,1.0249
6528.00,1.0331
6527.00,1.0410
6526.00,1.0488
6525.00,1.0563
6524.00,1.0636
6523.00,1.0707
6522.00,1.0775
6521.00,1.0842
6520.00,1.0908
6519.00,1.0973
6518.00,1.1037
6517.00,1.1100
6516.00,1.1161
6515.00,1.1221
6514.00,1.1279
6513.00,1.1336
6512.00,1.1389
6511.00,1.1438
6510.00,1.1481
6509.00,1.1519
6508.00,1.1552
6507.00,1.1582
6506.00,1.1611
6505.00,1.1641
6504.00,1.1670
6503.00,1.1698
6502.00,1.1722
6501.00,1.1740
6500.00,1.1750
6499.00,1.1752
6498.00,1.1748
6497.00,1.1742
6496.00,1.1737
6495.00,1.1731
6494.00,1.1722
6493.00,1.1710
6492.00,1.1693
6491.00,1.1673
6490.00,1.1651
6489.00,1.1626
6488.00,1.1600
6487.00,1.1572
6486.00,1.1542
6485.00,1.1508
6484.00,1.1467
6483.00,1.1421
6482.00,1.1371
6481.00,1.1318
6480.00,1.1260
6479.00,1.1198
6478.00,1.1135
6477.00,1.1071
6476.00,1.1003
6475.00,1.0929
6474.00,1.0848
6473.00,1.0764
6472.00,1.0678
6471.00,1.0591
6470.00,1.0503
6469.00,1.0415
6468.00,1.0326
6467.00,1.0235
6466.00,1.0140
6465.00,1.0040
6464.00,0.9938
6463.00,0.9836
6462.00,0.9736
6461.00,0.9638
6460.00,0.9541
6459.00,0.9442
6458.00,0.9343
6457.00,0.9242
6456.00,0.9140
6455.00,0.9037
6454.00,0.8934
6453.00,0.8835
6452.00,0.8739
6451.00,0.8643
6450.00,0.8548
6449.00,0.8454
6448.00,0.8362
6447.00,0.8273
6446.00,0.8186
6445.00,0.8103
6444.00,0.8023
6443.00,0.7947
6442.00,0.7876
6441.00,0.7809
6440.00,0.7748
6439.00,0.7690
6438.00,0.7637
6437.00,0.7589
6436.00,0.7545
6435.00,0.7505
6434.00,0.7472
6433.00,0.7444
6432.00,0.7423
6431.00,0.7407
6430.00,0.7398
6429.00,0.7394
6428.00,0.7395
6427.00,0.7401
6426.00,0.7413
6425.00,0.7432
6424.00,0.7456
6423.00,0.7485
6422.00,0.7519
6421.00,0.7558
6420.00,0.7603
6419.00,0.7654
6418.00,0.7711
6417.00,0.7774
6416.00,0.7841
6415.00,0.7912
6414.00,0.7985
6413.00,0.8061
6412.00,0.8138
6411.00,0.8216
6410.00,0.8296
6409.00,0.8380
6408.00,0.8466
6407.00,0.8554
6406.00,0.8643
6405.00,0.8734
6404.00,0.8827
6403.00,0.8920
6402.00,0.9014
6401.00,0.9108
6400.00,0.9202
6399.00,0.9294
6398.00,0.9387
6397.00,0.9481
6396.00,0.9574
6395.00,0.9666
6394.00,0.9758
6393.00,0.9850
6392.00,0.9943
6391.00,1.0034
6390.00,1.0124
6389.00,1.0214
6388.00,1.0302
6387.00,1.0388
6386.00,1.0469
6385.00,1.0547
6384.00,1.0624
6383.00,1.0698
6382.00,1.0771
6381.00,1.0844
6380.00,1.0918
6379.00,1.0992
6378.00,1.1062
6377.00,1.1128
6376.00,1.1192
6375.00,1.1254
6374.00,1.1315
6373.00,1.1373
6372.00,1.1430
6371.00,1.1485
6370.00,1.1540
6369.00,1.1591
6368.00,1.1636
6367.00,1.1674
6366.00,1.1707
6365.00,1.1739
6364.00,1.1769
6363.00,1.1796
6362.00,1.1819
6361.00,1.1840
6360.00,1.1861
6359.00,1.1880
6358.00,1.1896
6357.00,1.1908
6356.00,1.1916
6355.00,1.1919
6354.00,1.1919
6353.00,1.1914
6352.00,1.1904
6351.00,1.1890
6350.00,1.1875
6349.00,1.1859
6348.00,1.1841
6347.00,1.1819
6346.00,1.1794
6345.00,1.1764
6344.00,1.1729
6343.00,1.1687
6342.00,1.1641
6341.00,1.1591
6340.00,1.1536
6339.00,1.1476
6338.00,1.1411
6337.00,1.1345
6336.00,1.1277
6335.00,1.1207
6334.00,1.1135
6333.00,1.1063
6332.00,1.0988
6331.00,1.0907
6330.00,1.0821
6329.00,1.0730
6328.00,1.0638
6327.00,1.0543
6326.00,1.0446
6325.00,1.0347
6324.00,1.0245
6323.00,1.0140
6322.00,1.0031
6321.00,0.9919
6320.00,0.9807
6319.00,0.9693
6318.00,0.9579
6317.00,0.9464
6316.00,0.9349
6315.00,0.9236
6314.00,0.9123
6313.00,0.9013
6312.00,0.8903
6311.00,0.8795
6310.00,0.8690
6309.00,0.8587
6308.00,0.8485
6307.00,0.8386
6306.00,0.8289
6305.00,0.8197
6304.00,0.8109
6303.00,0.8022
6302.00,0.7939
6301.00,0.7859
6300.00,0.7786
6299.00,0.7718
6298.00,0.7658
6297.00,0.7603
6296.00,0.7555
6295.00,0.7514
6294.00,0.7479
6293.00,0.7450
6292.00,0.7425
6291.00,0.7406
6290.00,0.7392
6289.00,0.7386
6288.00,0.7387
6287.00,0.7392
6286.00,0.7403
6285.00,0.7422
6284.00,0.7447
6283.00,0.7478
6282.00,0.7515
6281.00,0.7557
6280.00,0.7605
6279.00,0.7658
6278.00,0.7716
6277.00,0.7778
6276.00,0.7843
6275.00,0.7912
6274.00,0.7984
6273.00,0.8059
6272.00,0.8138
6271.00,0.8219
6270.00,0.8303
6269.00,0.8389
6268.00,0.8477
6267.00,0.8568
6266.00,0.8659
6265.00,0.8750
6264.00,0.8843
6263.00,0.8936
6262.00,0.9031
6261.00,0.9127
6260.00,0.9224
6259.00,0.9322
6258.00,0.9420
6257.00,0.9516
6256.00,0.9609
6255.00,0.9699
6254.00,0.9786
6253.00,0.9872
6252.00,0.9959
6251.00,1.0048
6250.00,1.0139
6249.00,1.0229
6248.00,1.0318
6247.00,1.0404
6246.00,1.0487
6245.00,1.0566
6244.00,1.0643
6243.00,1.0717
6242.00,1.0789
6241.00,1.0860
6240.00,1.0926
6239.00,1.0990
6238.00,1.1051
6237.00,1.1111
6236.00,1.1172
6235.00,1.1235
6234.00,1.1296
6233.00,1.1355
6232.00,1.1409
6231.00,1.1459
6230.00,1.1504
6229.00,1.1543
6228.00,1.1578
6227.00,1.1612
6226.00,1.1645
6225.00,1.1675
6224.00,1.1698
6223.00,1.1719
6222.00,1.1738
6221.00,1.1755
6220.00,1.1768
6219.00,1.1776
6218.00,1.1779
6217.00,1.1780
6216.00,1.1778
6215.00,1.1771
6214.00,1.1760
6213.00,1.1746
6212.00,1.1729
6211.00,1.1708
6210.00,1.1683
6209.00,1.1653
6208.00,1.1620
6207.00,1.1583
6206.00,1.1542
6205.00,1.1498
6204.00,1.1451
6203.00,1.1402
6202.00,1.1350
6201.00,1.1294
6200.00,1.1236
6199.00,1.1176
6198.00,1.1112
6197.00,1.1044
6196.00,1.0970
6195.00,1.0893
6194.00,1.0815
6193.00,1.0736
6192.00,1.0652
6191.00,1.0563
6190.00,1.0469
6189.00,1.0372
6188.00,1.0272
6187.00,1.0170
6186.00,1.0068
6185.00,0.9965
6184.00,0.9862
6183.00,0.9758
6182.00,0.9650
6181.00,0.9541
6180.00,0.9431
6179.00,0.9321
6178.00,0.9213
6177.00,0.9105
6176.00,0.8997
