Created as New Dataset,Sample 023 By Administrator Date Wednesday, November 24 2021
cm-1,A
7502.00,0.8136
7501.00,0.8186
7500.00,0.8227
7499.00,0.8259
7498.00,0.8280
7497.00,0.8295
7496.00,0.8309
7495.00,0.8323
7494.00,0.8334
7493.00,0.8343
7492.00,0.8354
7491.00,0.8368
7490.00,0.8388
7489.00,0.8406
7488.00,0.8415
7487.00,0.8409
7486.00,0.8389
7485.00,0.8360
7484.00,0.8323
7483.00,0.8279
7482.00,0.8231
7481.00,0.8183
7480.00,0.8137
7479.00,0.8096
7478.00,0.8058
7477.00,0.8021
7476.00,0.7981
7475.00,0.7938
7474.00,0.7894
7473.00,0.7850
7472.00,0.7805
7471.00,0.7756
7470.00,0.7697
7469.00,0.7627
7468.00,0.7548
7467.00,0.7466
7466.00,0.7384
7465.00,0.7304
7464.00,0.7222
7463.00,0.7135
7462.00,0.7043
7461.00,0.6947
7460.00,0.6848
7459.00,0.6748
7458.00,0.6649
7457.00,0.6556
7456.00,0.6475
7455.00,0.6405
7454.00,0.6344
7453.00,0.6285
7452.00,0.6224
7451.00,0.6160
7450.00,0.6095
7449.00,0.6032
7448.00,0.5967
7447.00,0.5902
7446.00,0.5837
7445.00,0.5775
7444.00,0.5719
7443.00,0.5666
7442.00,0.5615
7441.00,0.5565
7440.00,0.5518
7439.00,0.5476
7438.00,0.5438
7437.00,0.5403
7436.00,0.5368
7435.00,0.5334
7434.00,0.5302
7433.00,0.5276
7432.00,0.5253
7431.00,0.5232
7430.00,0.5214
7429.00,0.5203
7428.00,0.5200
7427.00,0.5204
7426.00,0.5211
7425.00,0.5216
7424.00,0.5222
7423.00,0.5231
7422.00,0.5246
7421.00,0.5267
7420.00,0.5291
7419.00,0.5317
7418.00,0.5347
7417.00,0.5383
7416.00,0.5425
7415.00,0.5475
7414.00,0.5531
7413.00,0.5591
7412.00,0.5651
7411.00,0.5711
7410.00,0.5775
7409.00,0.5845
7408.00,0.5921
7407.00,0.5998
7406.00,0.6077
7405.00,0.6162
7404.00,0.6253
7403.00,0.6348
7402.00,0.6445
7401.00,0.6540
7400.00,0.6633
7399.00,0.6725
7398.00,0.6817
7397.00,0.6910
7396.00,0.7005
7395.00,0.7102
7394.00,0.7201
7393.00,0.7300
7392.00,0.7401
7391.00,0.7501
7390.00,0.7603
7389.00,0.7705
7388.00,0.7806
7387.00,0.7905
7386.00,0.8003
7385.00,0.8099
7384.00,0.8189
7383.00,0.8275
7382.00,0.8361
7381.00,0.8451
7380.00,0.8542
7379.00,0.8630
7378.00,0.8712
7377.00,0.8791
7376.00,0.8866
7375.00,0.8937
7374.00,0.9006
7373.00,0.9073
7372.00,0.9140
7371.00,0.9204
7370.00,0.9265
7369.00,0.9328
7368.00,0.9394
7367.00,0.9457
7366.00,0.9514
7365.00,0.9567
7364.00,0.9618
7363.00,0.9665
7362.00,0.9706
7361.00,0.9742
7360.00,0.9780
7359.00,0.9819
7358.00,0.9855
7357.00,0.9884
7356.00,0.9908
7355.00,0.9932
7354.00,0.9952
7353.00,0.9965
7352.00,0.9967
7351.00,0.9967
7350.00,0.9971
7349.00,0.9981
7348.00,0.9990
7347.00,0.9990
7346.00,0.9979
7345.00,0.9962
7344.00,0.9943
7343.00,0.9922
7342.00,0.9898
7341.00,0.9870
7340.00,0.9839
7339.00,0.9804
7338.00,0.9767
7337.00,0.9725
7336.00,0.9677
7335.00,0.9623
7334.00,0.9564
7333.00,0.9503
7332.00,0.9445
7331.00,0.9388
7330.00,0.9331
7329.00,0.9271
7328.00,0.9208
7327.00,0.9144
7326.00,0.9078
7325.00,0.9010
7324.00,0.8934
7323.00,0.8847
7322.00,0.8757
7321.00,0.8669
7320.00,0.8584
7319.00,0.8500
7318.00,0.8411
7317.00,0.8321
7316.00,0.8231
7315.00,0.8144
7314.00,0.8057
7313.00,0.7967
7312.00,0.7873
7311.00,0.7779
7310.00,0.7690
7309.00,0.7606
7308.00,0.7522
7307.00,0.7436
7306.00,0.7350
7305.00,0.7266
7304.00,0.7188
7303.00,0.7113
7302.00,0.7039
7301.00,0.6966
7300.00,0.6897
7299.00,0.6831
7298.00,0.6772
7297.00,0.6718
7296.00,0.6668
7295.00,0.6622
7294.00,0.6580
7293.00,0.6544
7292.00,0.6514
7291.00,0.6488
7290.00,0.6465
7289.00,0.6446
7288.00,0.6433
7287.00,0.6427
7286.00,0.6427
7285.00,0.6433
7284.00,0.6441
7283.00,0.6454
7282.00,0.6475
7281.00,0.6503
7280.00,0.6535
7279.00,0.6569
7278.00,0.6608
7277.00,0.6653
7276.00,0.6703
7275.00,0.6757
7274.00,0.6815
7273.00,0.6878
7272.00,0.6948
7271.00,0.7021
7270.00,0.7096
7269.00,0.7172
7268.00,0.7248
7267.00,0.7324
7266.00,0.7400
7265.00,0.7478
7264.00,0.7559
7263.00,0.7642
7262.00,0.7729
7261.00,0.7821
7260.00,0.7915
7259.00,0.8010
7258.00,0.8104
7257.00,0.8199
7256.00,0.8293
7255.00,0.8387
7254.00,0.8479
7253.00,0.8568
7252.00,0.8654
7251.00,0.8736
7250.00,0.8817
7249.00,0.8900
7248.00,0.8987
7247.00,0.9078
7246.00,0.9171
7245.00,0.9263
7244.00,0.9353
7243.00,0.9439
7242.00,0.9519
7241.00,0.9592
7240.00,0.9659
7239.00,0.9722
7238.00,0.9787
7237.00,0.9855
7236.00,0.9922
7235.00,0.9985
7234.00,1.0042
7233.00,1.0100
7232.00,1.0160
7231.00,1.0214
7230.00,1.0259
7229.00,1.0298
7228.00,1.0335
7227.00,1.0373
7226.00,1.0405
7225.00,1.0428
7224.00,1.0445
7223.00,1.0462
7222.00,1.0485
7221.00,1.0509
7220.00,1.0528
7219.00,1.0540
7218.00,1.0550
7217.00,1.0561
7216.00,1.0571
7215.00,1.0577
7214.00,1.0574
7213.00,1.0566
7212.00,1.0557
7211.00,1.0546
7210.00,1.0526
7209.00,1.0498
7208.00,1.0465
7207.00,1.0432
7206.00,1.0400
7205.00,1.0365
7204.00,1.0325
7203.00,1.0278
7202.00,1.0230
7201.00,1.0182
7200.00,1.0133
7199.00,1.0077
7198.00,1.0016
7197.00,0.9956
7196.00,0.9901
7195.00,0.9847
7194.00,0.9789
7193.00,0.9723
7192.00,0.9652
7191.00,0.9578
7190.00,0.9502
7189.00,0.9420
7188.00,0.9331
7187.00,0.9240
7186.00,0.9152
7185.00,0.9065
7184.00,0.8977
7183.00,0.8886
7182.00,0.8793
7181.00,0.8704
7180.00,0.8621
7179.00,0.8540
7178.00,0.8461
7177.00,0.8380
7176.00,0.8298
7175.00,0.8215
7174.00,0.8129
7173.00,0.8040
7172.00,0.7947
7171.00,0.7850
7170.00,0.7753
7169.00,0.7662
7168.00,0.7578
7167.00,0.7500
7166.00,0.7426
7165.00,0.7355
7164.00,0.7288
7163.00,0.7225
7162.00,0.7166
7161.00,0.7109
7160.00,0.7054
7159.00,0.7003
7158.00,0.6959
7157.00,0.6922
7156.00,0.6890
7155.00,0.6862
7154.00,0.6837
7153.00,0.6815
7152.00,0.6796
7151.00,0.6782
7150.00,0.6774
7149.00,0.6771
7148.00,0.6774
7147.00,0.6782
7146.00,0.6796
7145.00,0.6816
7144.00,0.6840
7143.00,0.6869
7142.00,0.6903
7141.00,0.6941
7140.00,0.6984
7139.00,0.7034
7138.00,0.7090
7137.00,0.7153
7136.00,0.7220
7135.00,0.7289
7134.00,0.7361
7133.00,0.7434
7132.00,0.7506
7131.00,0.7578
7130.00,0.7652
7129.00,0.7733
7128.00,0.7820
7127.00,0.7910
7126.00,0.8001
7125.00,0.8093
7124.00,0.8187
7123.00,0.8281
7122.00,0.8376
7121.00,0.8470
7120.00,0.8565
7119.00,0.8661
7118.00,0.8759
7117.00,0.8856
7116.00,0.8950
7115.00,0.9040
7114.00,0.9130
7113.00,0.9222
7112.00,0.9313
7111.00,0.9401
7110.00,0.9487
7109.00,0.9574
7108.00,0.9664
7107.00,0.9752
7106.00,0.9835
7105.00,0.9914
7104.00,0.9995
7103.00,1.0076
7102.00,1.0156
7101.00,1.0233
7100.00,1.0305
7099.00,1.0376
7098.00,1.0447
7097.00,1.0516
7096.00,1.0580
7095.00,1.0640
7094.00,1.0697
7093.00,1.0751
7092.00,1.0802
7091.00,1.0850
7090.00,1.0896
7089.00,1.0941
7088.00,1.0983
7087.00,1.1025
7086.00,1.1065
7085.00,1.1100
7084.00,1.1126
7083.00,1.1144
7082.00,1.1159
7081.00,1.1176
7080.00,1.1191
7079.00,1.1199
7078.00,1.1204
7077.00,1.1211
7076.00,1.1222
7075.00,1.1229
7074.00,1.1228
7073.00,1.1216
7072.00,1.1198
7071.00,1.1180
7070.00,1.1161
7069.00,1.1140
7068.00,1.1112
7067.00,1.1077
7066.00,1.1040
7065.00,1.1002
7064.00,1.0963
7063.00,1.0919
7062.00,1.0873
7061.00,1.0828
7060.00,1.0784
7059.00,1.0735
7058.00,1.0678
7057.00,1.0614
7056.00,1.0543
7055.00,1.0467
7054.00,1.0388
7053.00,1.0307
7052.00,1.0225
7051.00,1.0145
7050.00,1.0066
7049.00,0.9989
7048.00,0.9909
7047.00,0.9822
7046.00,0.9729
7045.00,0.9633
7044.00,0.9539
7043.00,0.9445
7042.00,0.9350
7041.00,0.9251
7040.00,0.9151
7039.00,0.9053
7038.00,0.8958
7037.00,0.8865
7036.00,0.8769
7035.00,0.8673
7034.00,0.8579
7033.00,0.8489
7032.00,0.8402
7031.00,0.8314
7030.00,0.8226
7029.00,0.8140
7028.00,0.8056
7027.00,0.7976
7026.00,0.7897
7025.00,0.7821
7024.00,0.7749
7023.00,0.7680
7022.00,0.7616
7021.00,0.7557
7020.00,0.7502
7019.00,0.7453
7018.00,0.7410
7017.00,0.7373
7016.00,0.7342
7015.00,0.7317
7014.00,0.7298
7013.00,0.7284
7012.00,0.7276
7011.00,0.7273
7010.00,0.7277
7009.00,0.7288
7008.00,0.7302
7007.00,0.7320
7006.00,0.7342
7005.00,0.7369
7004.00,0.7402
7003.00,0.7440
7002.00,0.7482
7001.00,0.7531
7000.00,0.7586
6999.00,0.7645
6998.00,0.7708
6997.00,0.7773
6996.00,0.7840
6995.00,0.7909
6994.00,0.7983
6993.00,0.8063
6992.00,0.8148
6991.00,0.8235
6990.00,0.8322
6989.00,0.8411
6988.00,0.8501
6987.00,0.8591
6986.00,0.8682
6985.00,0.8775
6984.00,0.8872
6983.00,0.8971
6982.00,0.9069
6981.00,0.9164
6980.00,0.9256
6979.00,0.9345
6978.00,0.9434
6977.00,0.9524
6976.00,0.9615
6975.00,0.9706
6974.00,0.9799
6973.00,0.9894
6972.00,0.9986
6971.00,1.0071
6970.00,1.0152
6969.00,1.0231
6968.00,1.0308
6967.00,1.0382
6966.00,1.0454
6965.00,1.0525
6964.00,1.0597
6963.00,1.0669
6962.00,1.0738
6961.00,1.0803
6960.00,1.0862
6959.00,1.0917
6958.00,1.0970
6957.00,1.1019
6956.00,1.1064
6955.00,1.1105
6954.00,1.1146
6953.00,1.1189
6952.00,1.1231
6951.00,1.1268
6950.00,1.1296
6949.00,1.1318
6948.00,1.1336
6947.00,1.1353
6946.00,1.1369
6945.00,1.1380
6944.00,1.1386
6943.00,1.1389
6942.00,1.1392
6941.00,1.1396
6940.00,1.1396
6939.00,1.1387
6938.00,1.1371
6937.00,1.1352
6936.00,1.1335
6935.00,1.1316
6934.00,1.1293
6933.00,1.1266
6932.00,1.1235
6931.00,1.1201
6930.00,1.1163
6929.00,1.1120
6928.00,1.1072
6927.00,1.1020
6926.00,1.0968
6925.00,1.0914
6924.00,1.0856
6923.00,1.0793
6922.00,1.0728
6921.00,1.0661
6920.00,1.0590
6919.00,1.0511
6918.00,1.0426
6917.00,1.0341
6916.00,1.0258
6915.00,1.0174
6914.00,1.0087
6913.00,0.9998
6912.00,0.9906
6911.00,0.9813
6910.00,0.9719
6909.00,0.9625
6908.00,0.9530
6907.00,0.9433
6906.00,0.9335
6905.00,0.9238
6904.00,0.9140
6903.00,0.9042
6902.00,0.8942
6901.00,0.8841
6900.00,0.8742
6899.00,0.8644
6898.00,0.8549
6897.00,0.8458
6896.00,0.8370
6895.00,0.8283
6894.00,0.8197
6893.00,0.8112
6892.00,0.8029
6891.00,0.7948
6890.00,0.7870
6889.00,0.7796
6888.00,0.7726
6887.00,0.7660
6886.00,0.7600
6885.00,0.7544
6884.00,0.7490
6883.00,0.7439
6882.00,0.7392
6881.00,0.7352
6880.00,0.7319
6879.00,0.7293
6878.00,0.7271
6877.00,0.7255
6876.00,0.7246
6875.00,0.7242
6874.00,0.7241
6873.00,0.7243
6872.00,0.7250
6871.00,0.7262
6870.00,0.7281
6869.00,0.7308
6868.00,0.7339
6867.00,0.7374
6866.00,0.7413
6865.00,0.7457
6864.00,0.7506
6863.00,0.7560
6862.00,0.7616
6861.00,0.7675
6860.00,0.7740
6859.00,0.7810
6858.00,0.7888
6857.00,0.7970
6856.00,0.8053
6855.00,0.8137
6854.00,0.8223
6853.00,0.8312
6852.00,0.8403
6851.00,0.8496
6850.00,0.8590
6849.00,0.8688
6848.00,0.8789
6847.00,0.8891
6846.00,0.8993
6845.00,0.9093
6844.00,0.9189
6843.00,0.9281
6842.00,0.9374
6841.00,0.9469
6840.00,0.9566
6839.00,0.9662
6838.00,0.9757
6837.00,0.9850
6836.00,0.9945
6835.00,1.0040
6834.00,1.0134
6833.00,1.0225
6832.00,1.0315
6831.00,1.0403
6830.00,1.0491
6829.00,1.0575
6828.00,1.0655
6827.00,1.0730
6826.00,1.0801
6825.00,1.0869
6824.00,1.0936
6823.00,1.1001
6822.00,1.1065
6821.00,1.1129
6820.00,1.1193
6819.00,1.1258
6818.00,1.1321
6817.00,1.1381
6816.00,1.1435
6815.00,1.1481
6814.00,1.1522
6813.00,1.1558
6812.00,1.1591
6811.00,1.1620
6810.00,1.1645
6809.00,1.1669
6808.00,1.1692
6807.00,1.1715
6806.00,1.1735
6805.00,1.1752
6804.00,1.1765
6803.00,1.1774
6802.00,1.1779
6801.00,1.1777
6800.00,1.1772
6799.00,1.1768
6798.00,1.1765
6797.00,1.1760
6796.00,1.1748
6795.00,1.1726
6794.00,1.1696
6793.00,1.1661
6792.00,1.1621
6791.00,1.1575
6790.00,1.1527
6789.00,1.1478
6788.00,1.1433
6787.00,1.1388
6786.00,1.1340
6785.00,1.1286
6784.00,1.1226
6783.00,1.1162
6782.00,1.1097
6781.00,1.1031
6780.00,1.0961
6779.00,1.0886
6778.00,1.0805
6777.00,1.0722
6776.00,1.0635
6775.00,1.0545
6774.00,1.0453
6773.00,1.0360
6772.00,1.0266
6771.00,1.0170
6770.00,1.0072
6769.00,0.9974
6768.00,0.9876
6767.00,0.9777
6766.00,0.9675
6765.00,0.9570
6764.00,0.9462
6763.00,0.9353
6762.00,0.9244
6761.00,0.9134
6760.00,0.9024
6759.00,0.8916
6758.00,0.8814
6757.00,0.8718
6756.00,0.8625
6755.00,0.8533
6754.00,0.8443
6753.00,0.8355
6752.00,0.8270
6751.00,0.8188
6750.00,0.8108
6749.00,0.8033
6748.00,0.7964
6747.00,0.7900
6746.00,0.7840
6745.00,0.7784
6744.00,0.7733
6743.00,0.7686
6742.00,0.7645
6741.00,0.7609
6740.00,0.7578
6739.00,0.7553
6738.00,0.7535
6737.00,0.7525
6736.00,0.7521
6735.00,0.7520
6734.00,0.7525
6733.00,0.7536
6732.00,0.7554
6731.00,0.7577
6730.00,0.7607
6729.00,0.7643
6728.00,0.7684
6727.00,0.7730
6726.00,0.7779
6725.00,0.7834
6724.00,0.7895
6723.00,0.7959
6722.00,0.8026
6721.00,0.8101
6720.00,0.8183
6719.00,0.8269
6718.00,0.8355
6717.00,0.8440
6716.00,0.8526
6715.00,0.8616
6714.00,0.8709
6713.00,0.8803
6712.00,0.8896
6711.00,0.8991
6710.00,0.9087
6709.00,0.9183
6708.00,0.9279
6707.00,0.9372
6706.00,0.9466
6705.00,0.9562
6704.00,0.9660
6703.00,0.9759
6702.00,0.9858
6701.00,0.9956
6700.00,1.0052
6699.00,1.0146
6698.00,1.0237
6697.00,1.0326
6696.00,1.0412
6695.00,1.0497
6694.00,1.0581
6693.00,1.0662
6692.00,1.0742
6691.00,1.0820
6690.00,1.0895
6689.00,1.0967
6688.00,1.1036
6687.00,1.1103
6686.00,1.1169
6685.00,1.1231
6684.00,1.1288
6683.00,1.1339
6682.00,1.1389
6681.00,1.1438
6680.00,1.1483
6679.00,1.1524
6678.00,1.1561
6677.00,1.1596
6676.00,1.1629
6675.00,1.1659
6674.00,1.1686
6673.00,1.1710
6672.00,1.1732
6671.00,1.1752
6670.00,1.1771
6669.00,1.1786
6668.00,1.1794
6667.00,1.1794
6666.00,1.1786
6665.00,1.1774
6664.00,1.1758
6663.00,1.1740
6662.00,1.1719
6661.00,1.1695
6660.00,1.1671
6659.00,1.1645
6658.00,1.1615
6657.00,1.1580
6656.00,1.1538
6655.00,1.1494
6654.00,1.1448
6653.00,1.1400
6652.00,1.1348
6651.00,1.1293
6650.00,1.1235
6649.00,1.1176
6648.00,1.1113
6647.00,1.1048
6646.00,1.0980
6645.00,1.0908
6644.00,1.0829
6643.00,1.0746
6642.00,1.0661
6641.00,1.0574
6640.00,1.0483
6639.00,1.0388
6638.00,1.0293
6637.00,1.0197
6636.00,1.0100
6635.00,0.9998
6634.00,0.9895
6633.00,0.9791
6632.00,0.9688
6631.00,0.9586
6630.00,0.9485
6629.00,0.9382
6628.00,0.9277
6627.00,0.9169
6626.00,0.9061
6625.00,0.8957
6624.00,0.8855
6623.00,0.8755
6622.00,0.8660
6621.00,0.8567
6620.00,0.8476
6619.00,0.8384
6618.00,0.8293
6617.00,0.8204
6616.00,0.8118
6615.00,0.8035
6614.00,0.7955
6613.00,0.7880
6612.00,0.7811
6611.00,0.7748
6610.00,0.7689
6609.00,0.7632
6608.00,0.7578
6607.00,0.7528
6606.00,0.7484
6605.00,0.7445
6604.00,0.7411
6603.00,0.7382
6602.00,0.7359
6601.00,0.7344
6600.00,0.7335
6599.00,0.7331
6598.00,0.7333
6597.00,0.7342
6596.00,0.7358
6595.00,0.7379
6594.00,0.7405
6593.00,0.7436
6592.00,0.7472
6591.00,0.7512
6590.00,0.7558
6589.00,0.7611
6588.00,0.7669
6587.00,0.7732
6586.00,0.7800
6585.00,0.7872
6584.00,0.7949
6583.00,0.8030
6582.00,0.8115
6581.00,0.8204
6580.00,0.8295
6579.00,0.8386
6578.00,0.8477
6577.00,0.8569
6576.00,0.8662
6575.00,0.8758
6574.00,0.8856
6573.00,0.8958
6572.00,0.9061
6571.00,0.9164
6570.00,0.9266
6569.00,0.9366
6568.00,0.9465
6567.00,0.9566
6566.00,0.9667
6565.00,0.9771
6564.00,0.9876
6563.00,0.9980
6562.00,1.0082
6561.00,1.0180
6560.00,1.0275
6559.00,1.0368
6558.00,1.0460
6557.00,1.0549
6556.00,1.0638
6555.00,1.0726
6554.00,1.0815
6553.00,1.0903
6552.00,1.0987
6551.00,1.1065
6550.00,1.1140
6549.00,1.1212
6548.00,1.1281
6547.00,1.1344
6546.00,1.1404
6545.00,1.1464
6544.00,1.1524
6543.00,1.1581
6542.00,1.1636
6541.00,1.1687
6540.00,1.1735
6539.00,1.1776
6538.00,1.1813
6537.00,1.1848
6536.00,1.1879
6535.00,1.1907
6534.00,1.1932
6533.00,1.1956
6532.00,1.1978
6531.00,1.1994
6530.00,1.2003
6529.00,1.2007
6528.00,1.2010
6527.00,1.2013
6526.00,1.2013
6525.00,1.2009
6524.00,1.2000
6523.00,1.1988
6522.00,1.1974
6521.00,1.1957
6520.00,1.1935
6519.00,1.1908
6518.00,1.1878
6517.00,1.1847
6516.00,1.1812
6515.00,1.1770
6514.00,1.1720
6513.00,1.1661
6512.00,1.1599
6511.00,1.1535
6510.00,1.1469
6509.00,1.1400
6508.00,1.1328
6507.00,1.1254
6506.00,1.1180
6505.00,1.1105
6504.00,1.1027
6503.00,1.0946
6502.00,1.0860
6501.00,1.0771
6500.00,1.0677
6499.00,1.0579
6498.00,1.0479
6497.00,1.0376
6496.00,1.0272
6495.00,1.0166
6494.00,1.0059
6493.00,0.9952
6492.00,0.9842
6491.00,0.9729
6490.00,0.9616
6489.00,0.9504
6488.00,0.9395
6487.00,0.9287
6486.00,0.9180
6485.00,0.9073
6484.00,0.8966
6483.00,0.8857
6482.00,0.8749
6481.00,0.8642
6480.00,0.8538
6479.00,0.8436
6478.00,0.8338
6477.00,0.8246
6476.00,0.8159
6475.00,0.8075
6474.00,0.7996
6473.00,0.7920
6472.00,0.7850
6471.00,0.7785
6470.00,0.7725
6469.00,0.7670
6468.00,0.7620
6467.00,0.7575
6466.00,0.7537
6465.00,0.7504
6464.00,0.7478
6463.00,0.7457
6462.00,0.7444
6461.00,0.7438
6460.00,0.7439
6459.00,0.7447
6458.00,0.7461
6457.00,0.7483
6456.00,0.7511
6455.00,0.7545
6454.00,0.7586
6453.00,0.7633
6452.00,0.7685
6451.00,0.7741
6450.00,0.7802
6449.00,0.7867
6448.00,0.7936
6447.00,0.8008
6446.00,0.8083
6445.00,0.8163
6444.00,0.8247
6443.00,0.8335
6442.00,0.8425
6441.00,0.8518
6440.00,0.8613
6439.00,0.8711
6438.00,0.8812
6437.00,0.8913
6436.00,0.9016
6435.00,0.9120
6434.00,0.9225
6433.00,0.9330
6432.00,0.9433
6431.00,0.9535
6430.00,0.9637
6429.00,0.9739
6428.00,0.9840
6427.00,0.9939
6426.00,1.0037
6425.00,1.0136
6424.00,1.0235
6423.00,1.0331
6422.00,1.0427
6421.00,1.0522
6420.00,1.0615
6419.00,1.0704
6418.00,1.0789
6417.00,1.0870
6416.00,1.0948
6415.00,1.1023
6414.00,1.1095
6413.00,1.1165
6412.00,1.1234
6411.00,1.1302
6410.00,1.1366
6409.00,1.1426
6408.00,1.1484
6407.00,1.1538
6406.00,1.1590
6405.00,1.1637
6404.00,1.1679
6403.00,1.1716
6402.00,1.1749
6401.00,1.1781
6400.00,1.1812
6399.00,1.1842
6398.00,1.1869
6397.00,1.1892
6396.00,1.1907
6395.00,1.1916
6394.00,1.1922
6393.00,1.1928
6392.00,1.1931
6391.00,1.1929
6390.00,1.1922
6389.00,1.1910
6388.00,1.1894
6387.00,1.1873
6386.00,1.1845
6385.00,1.1812
6384.00,1.1776
6383.00,1.1741
6382.00,1.1705
6381.00,1.1668
6380.00,1.1626
6379.00,1.1579
6378.00,1.1530
6377.00,1.1480
6376.00,1.1425
6375.00,1.1364
6374.00,1.1296
6373.00,1.1224
6372.00,1.1149
6371.00,1.1073
6370.00,1.0993
6369.00,1.0911
6368.00,1.0826
6367.00,1.0738
6366.00,1.0650
6365.00,1.0560
6364.00,1.0468
6363.00,1.0372
6362.00,1.0274
6361.00,1.0175
6360.00,1.0074
6359.00,0.9973
6358.00,0.9870
6357.00,0.9767
6356.00,0.9662
6355.00,0.9556
6354.00,0.9448
6353.00,0.9340
6352.00,0.9231
6351.00,0.9123
6350.00,0.9019
6349.00,0.8917
6348.00,0.8818
6347.00,0.8720
6346.00,0.8623
6345.00,0.8526
6344.00,0.8429
6343.00,0.8332
6342.00,0.8237
6341.00,0.8145
6340.00,0.8056
6339.00,0.7970
6338.00,0.7889
6337.00,0.7810
6336.00,0.7735
6335.00,0.7664
6334.00,0.7599
6333.00,0.7539
6332.00,0.7485
6331.00,0.7436
6330.00,0.7393
6329.00,0.7356
6328.00,0.7323
6327.00,0.7294
6326.00,0.7271
6325.00,0.7254
6324.00,0.7244
6323.00,0.7241
6322.00,0.7244
6321.00,0.7254
6320.00,0.7271
6319.00,0.7294
6318.00,0.7324
6317.00,0.7360
6316.00,0.7403
6315.00,0.7451
6314.00,0.7505
6313.00,0.7566
6312.00,0.7630
6311.00,0.7699
6310.00,0.7773
6309.00,0.7852
6308.00,0.7934
6307.00,0.8021
6306.00,0.8114
6305.00,0.8211
6304.00,0.8311
6303.00,0.8411
6302.00,0.8511
6301.00,0.8614
6300.00,0.8717
6299.00,0.8821
6298.00,0.8927
6297.00,0.9037
6296.00,0.9151
6295.00,0.9264
6294.00,0.9376
6293.00,0.9486
6292.00,0.9595
6291.00,0.9700
6290.00,0.9802
6289.00,0.9902
6288.00,1.0002
6287.00,1.0100
6286.00,1.0199
6285.00,1.0297
6284.00,1.0394
6283.00,1.0490
6282.00,1.0587
6281.00,1.0683
6280.00,1.0774
6279.00,1.0860
6278.00,1.0941
6277.00,1.1020
6276.00,1.1097
6275.00,1.1170
6274.00,1.1239
6273.00,1.1311
6272.00,1.1383
6271.00,1.1452
6270.00,1.1514
6269.00,1.1569
6268.00,1.1621
6267.00,1.1673
6266.00,1.1724
6265.00,1.1774
6264.00,1.1822
6263.00,1.1868
6262.00,1.1906
6261.00,1.1936
6260.00,1.1959
6259.00,1.1978
6258.00,1.1996
6257.00,1.2013
6256.00,1.2029
6255.00,1.2041
6254.00,1.2049
6253.00,1.2049
6252.00,1.2041
6251.00,1.2028
6250.00,1.2012
6249.00,1.1997
6248.00,1.1980
6247.00,1.1958
6246.00,1.1933
6245.00,1.1907
6244.00,1.1878
6243.00,1.1846
6242.00,1.1810
6241.00,1.1769
6240.00,1.1724
6239.00,1.1673
6238.00,1.1617
6237.00,1.1557
6236.00,1.1493
6235.00,1.1425
6234.00,1.1353
6233.00,1.1278
6232.00,1.1199
6231.00,1.1115
6230.00,1.1027
6229.00,1.0936
6228.00,1.0846
6227.00,1.0756
6226.00,1.0665
6225.00,1.0570
6224.00,1.0470
6223.00,1.0366
6222.00,1.0259
6221.00,1.0149
6220.00,1.0036
6219.00,0.9922
6218.00,0.9809
6217.00,0.9696
6216.00,0.9583
6215.00,0.9467
6214.00,0.9348
6213.00,0.9229
6212.00,0.9108
6211.00,0.8987
6210.00,0.8866
6209.00,0.8746
6208.00,0.8628
6207.00,0.8512
6206.00,0.8399
6205.00,0.8290
6204.00,0.8185
6203.00,0.8084
6202.00,0.7986
6201.00,0.7893
6200.00,0.7803
6199.00,0.7718
6198.00,0.7636
6197.00,0.7561
6196.00,0.7491
6195.00,0.7428
6194.00,0.7370
6193.00,0.7318
6192.00,0.7272
6191.00,0.7231
6190.00,0.7197
6189.00,0.7172
6188.00,0.7154
6187.00,0.7143
6186.00,0.7139
6185.00,0.7144
6184.00,0.7155
6183.00,0.7173
6182.00,0.7196
6181.00,0.7226
6180.00,0.7263
6179.00,0.7306
6178.00,0.7357
6177.00,0.7413
6176.00,0.7476
