Created as New Dataset,Sample 047 By Administrator Date Wednesday, November 24 2021
cm-1,A
7502.00,0.8243
7501.00,0.8256
7500.00,0.8262
7499.00,0.8251
7498.00,0.8219
7497.00,0.8172
7496.00,0.8125
7495.00,0.8082
7494.00,0.8044
7493.00,0.8010
7492.00,0.7982
7491.00,0.7965
7490.00,0.7954
7489.00,0.7940
7488.00,0.7913
7487.00,0.7867
7486.00,0.7803
7485.00,0.7727
7484.00,0.7642
7483.00,0.7548
7482.00,0.7451
7481.00,0.7362
7480.00,0.7285
7479.00,0.7217
7478.00,0.7150
7477.00,0.7081
7476.00,0.7018
7475.00,0.6967
7474.00,0.6925
7473.00,0.6882
7472.00,0.6832
7471.00,0.6769
7470.00,0.6696
7469.00,0.6615
7468.00,0.6531
7467.00,0.6446
7466.00,0.6364
7465.00,0.6286
7464.00,0.6213
7463.00,0.6140
7462.00,0.6068
7461.00,0.5994
7460.00,0.5919
7459.00,0.5843
7458.00,0.5771
7457.00,0.5706
7456.00,0.5652
7455.00,0.5609
7454.00,0.5572
7453.00,0.5536
7452.00,0.5499
7451.00,0.5461
7450.00,0.5425
7449.00,0.5390
7448.00,0.5357
7447.00,0.5328
7446.00,0.5305
7445.00,0.5288
7444.00,0.5271
7443.00,0.5253
7442.00,0.5237
7441.00,0.5227
7440.00,0.5222
7439.00,0.5219
7438.00,0.5217
7437.00,0.5217
7436.00,0.5221
7435.00,0.5232
7434.00,0.5245
7433.00,0.5258
7432.00,0.5272
7431.00,0.5290
7430.00,0.5316
7429.00,0.5352
7428.00,0.5395
7427.00,0.5443
7426.00,0.5495
7425.00,0.5549
7424.00,0.5605
7423.00,0.5663
7422.00,0.5725
7421.00,0.5790
7420.00,0.5854
7419.00,0.5917
7418.00,0.5980
7417.00,0.6046
7416.00,0.6117
7415.00,0.6188
7414.00,0.6261
7413.00,0.6336
7412.00,0.6416
7411.00,0.6501
7410.00,0.6591
7409.00,0.6683
7408.00,0.6775
7407.00,0.6864
7406.00,0.6953
7405.00,0.7041
7404.00,0.7128
7403.00,0.7213
7402.00,0.7299
7401.00,0.7389
7400.00,0.7480
7399.00,0.7571
7398.00,0.7663
7397.00,0.7757
7396.00,0.7852
7395.00,0.7943
7394.00,0.8030
7393.00,0.8115
7392.00,0.8198
7391.00,0.8278
7390.00,0.8356
7389.00,0.8435
7388.00,0.8518
7387.00,0.8602
7386.00,0.8683
7385.00,0.8760
7384.00,0.8833
7383.00,0.8906
7382.00,0.8981
7381.00,0.9055
7380.00,0.9127
7379.00,0.9198
7378.00,0.9268
7377.00,0.9338
7376.00,0.9401
7375.00,0.9455
7374.00,0.9501
7373.00,0.9543
7372.00,0.9585
7371.00,0.9627
7370.00,0.9669
7369.00,0.9704
7368.00,0.9732
7367.00,0.9754
7366.00,0.9778
7365.00,0.9807
7364.00,0.9833
7363.00,0.9849
7362.00,0.9861
7361.00,0.9879
7360.00,0.9905
7359.00,0.9929
7358.00,0.9942
7357.00,0.9943
7356.00,0.9939
7355.00,0.9934
7354.00,0.9929
7353.00,0.9921
7352.00,0.9906
7351.00,0.9882
7350.00,0.9855
7349.00,0.9827
7348.00,0.9801
7347.00,0.9771
7346.00,0.9737
7345.00,0.9702
7344.00,0.9665
7343.00,0.9622
7342.00,0.9572
7341.00,0.9520
7340.00,0.9472
7339.00,0.9424
7338.00,0.9367
7337.00,0.9302
7336.00,0.9235
7335.00,0.9173
7334.00,0.9110
7333.00,0.9040
7332.00,0.8959
7331.00,0.8878
7330.00,0.8804
7329.00,0.8737
7328.00,0.8670
7327.00,0.8598
7326.00,0.8521
7325.00,0.8442
7324.00,0.8360
7323.00,0.8275
7322.00,0.8186
7321.00,0.8098
7320.00,0.8011
7319.00,0.7927
7318.00,0.7846
7317.00,0.7768
7316.00,0.7692
7315.00,0.7615
7314.00,0.7538
7313.00,0.7460
7312.00,0.7383
7311.00,0.7308
7310.00,0.7237
7309.00,0.7172
7308.00,0.7110
7307.00,0.7049
7306.00,0.6988
7305.00,0.6929
7304.00,0.6874
7303.00,0.6823
7302.00,0.6774
7301.00,0.6728
7300.00,0.6686
7299.00,0.6651
7298.00,0.6621
7297.00,0.6597
7296.00,0.6577
7295.00,0.6561
7294.00,0.6548
7293.00,0.6538
7292.00,0.6534
7291.00,0.6539
7290.00,0.6552
7289.00,0.6570
7288.00,0.6590
7287.00,0.6611
7286.00,0.6636
7285.00,0.6665
7284.00,0.6695
7283.00,0.6726
7282.00,0.6760
7281.00,0.6800
7280.00,0.6848
7279.00,0.6902
7278.00,0.6963
7277.00,0.7026
7276.00,0.7090
7275.00,0.7153
7274.00,0.7216
7273.00,0.7283
7272.00,0.7353
7271.00,0.7426
7270.00,0.7502
7269.00,0.7579
7268.00,0.7657
7267.00,0.7737
7266.00,0.7820
7265.00,0.7903
7264.00,0.7983
7263.00,0.8059
7262.00,0.8138
7261.00,0.8223
7260.00,0.8313
7259.00,0.8401
7258.00,0.8485
7257.00,0.8568
7256.00,0.8652
7255.00,0.8738
7254.00,0.8824
7253.00,0.8909
7252.00,0.8991
7251.00,0.9066
7250.00,0.9139
7249.00,0.9215
7248.00,0.9295
7247.00,0.9374
7246.00,0.9448
7245.00,0.9516
7244.00,0.9583
7243.00,0.9654
7242.00,0.9724
7241.00,0.9791
7240.00,0.9852
7239.00,0.9907
7238.00,0.9961
7237.00,1.0017
7236.00,1.0073
7235.00,1.0125
7234.00,1.0170
7233.00,1.0209
7232.00,1.0248
7231.00,1.0287
7230.00,1.0326
7229.00,1.0362
7228.00,1.0395
7227.00,1.0424
7226.00,1.0449
7225.00,1.0472
7224.00,1.0492
7223.00,1.0509
7222.00,1.0523
7221.00,1.0533
7220.00,1.0539
7219.00,1.0542
7218.00,1.0542
7217.00,1.0542
7216.00,1.0541
7215.00,1.0536
7214.00,1.0527
7213.00,1.0513
7212.00,1.0495
7211.00,1.0476
7210.00,1.0454
7209.00,1.0424
7208.00,1.0387
7207.00,1.0344
7206.00,1.0302
7205.00,1.0263
7204.00,1.0227
7203.00,1.0189
7202.00,1.0145
7201.00,1.0097
7200.00,1.0047
7199.00,0.9997
7198.00,0.9944
7197.00,0.9886
7196.00,0.9821
7195.00,0.9748
7194.00,0.9673
7193.00,0.9599
7192.00,0.9525
7191.00,0.9449
7190.00,0.9368
7189.00,0.9289
7188.00,0.9214
7187.00,0.9141
7186.00,0.9065
7185.00,0.8983
7184.00,0.8897
7183.00,0.8809
7182.00,0.8721
7181.00,0.8635
7180.00,0.8554
7179.00,0.8479
7178.00,0.8407
7177.00,0.8335
7176.00,0.8260
7175.00,0.8183
7174.00,0.8103
7173.00,0.8021
7172.00,0.7936
7171.00,0.7851
7170.00,0.7768
7169.00,0.7687
7168.00,0.7610
7167.00,0.7536
7166.00,0.7468
7165.00,0.7406
7164.00,0.7349
7163.00,0.7295
7162.00,0.7243
7161.00,0.7194
7160.00,0.7149
7159.00,0.7108
7158.00,0.7069
7157.00,0.7032
7156.00,0.6997
7155.00,0.6966
7154.00,0.6942
7153.00,0.6926
7152.00,0.6915
7151.00,0.6908
7150.00,0.6905
7149.00,0.6906
7148.00,0.6911
7147.00,0.6917
7146.00,0.6926
7145.00,0.6942
7144.00,0.6965
7143.00,0.6995
7142.00,0.7029
7141.00,0.7068
7140.00,0.7111
7139.00,0.7159
7138.00,0.7210
7137.00,0.7263
7136.00,0.7317
7135.00,0.7374
7134.00,0.7434
7133.00,0.7498
7132.00,0.7565
7131.00,0.7631
7130.00,0.7696
7129.00,0.7764
7128.00,0.7835
7127.00,0.7909
7126.00,0.7982
7125.00,0.8055
7124.00,0.8130
7123.00,0.8212
7122.00,0.8298
7121.00,0.8385
7120.00,0.8469
7119.00,0.8551
7118.00,0.8634
7117.00,0.8719
7116.00,0.8805
7115.00,0.8891
7114.00,0.8980
7113.00,0.9072
7112.00,0.9165
7111.00,0.9257
7110.00,0.9346
7109.00,0.9433
7108.00,0.9518
7107.00,0.9601
7106.00,0.9678
7105.00,0.9753
7104.00,0.9828
7103.00,0.9905
7102.00,0.9982
7101.00,1.0057
7100.00,1.0131
7099.00,1.0204
7098.00,1.0278
7097.00,1.0350
7096.00,1.0417
7095.00,1.0479
7094.00,1.0541
7093.00,1.0603
7092.00,1.0664
7091.00,1.0722
7090.00,1.0774
7089.00,1.0824
7088.00,1.0874
7087.00,1.0922
7086.00,1.0965
7085.00,1.1001
7084.00,1.1029
7083.00,1.1056
7082.00,1.1084
7081.00,1.1112
7080.00,1.1135
7079.00,1.1151
7078.00,1.1165
7077.00,1.1180
7076.00,1.1197
7075.00,1.1210
7074.00,1.1214
7073.00,1.1211
7072.00,1.1207
7071.00,1.1206
7070.00,1.1206
7069.00,1.1203
7068.00,1.1196
7067.00,1.1182
7066.00,1.1163
7065.00,1.1139
7064.00,1.1111
7063.00,1.1079
7062.00,1.1047
7061.00,1.1015
7060.00,1.0984
7059.00,1.0948
7058.00,1.0907
7057.00,1.0860
7056.00,1.0806
7055.00,1.0747
7054.00,1.0684
7053.00,1.0622
7052.00,1.0561
7051.00,1.0500
7050.00,1.0440
7049.00,1.0379
7048.00,1.0311
7047.00,1.0235
7046.00,1.0152
7045.00,1.0070
7044.00,0.9988
7043.00,0.9905
7042.00,0.9817
7041.00,0.9725
7040.00,0.9630
7039.00,0.9536
7038.00,0.9444
7037.00,0.9351
7036.00,0.9258
7035.00,0.9167
7034.00,0.9079
7033.00,0.8995
7032.00,0.8911
7031.00,0.8825
7030.00,0.8737
7029.00,0.8650
7028.00,0.8564
7027.00,0.8479
7026.00,0.8396
7025.00,0.8313
7024.00,0.8233
7023.00,0.8155
7022.00,0.8079
7021.00,0.8007
7020.00,0.7938
7019.00,0.7874
7018.00,0.7816
7017.00,0.7762
7016.00,0.7713
7015.00,0.7667
7014.00,0.7625
7013.00,0.7586
7012.00,0.7552
7011.00,0.7521
7010.00,0.7494
7009.00,0.7471
7008.00,0.7453
7007.00,0.7440
7006.00,0.7432
7005.00,0.7429
7004.00,0.7432
7003.00,0.7440
7002.00,0.7453
7001.00,0.7470
7000.00,0.7492
6999.00,0.7518
6998.00,0.7548
6997.00,0.7583
6996.00,0.7622
6995.00,0.7665
6994.00,0.7715
6993.00,0.7770
6992.00,0.7828
6991.00,0.7888
6990.00,0.7951
6989.00,0.8016
6988.00,0.8081
6987.00,0.8146
6986.00,0.8214
6985.00,0.8287
6984.00,0.8364
6983.00,0.8444
6982.00,0.8526
6981.00,0.8610
6980.00,0.8693
6979.00,0.8774
6978.00,0.8853
6977.00,0.8935
6976.00,0.9020
6975.00,0.9109
6974.00,0.9198
6973.00,0.9286
6972.00,0.9375
6971.00,0.9461
6970.00,0.9546
6969.00,0.9630
6968.00,0.9712
6967.00,0.9790
6966.00,0.9867
6965.00,0.9944
6964.00,1.0021
6963.00,1.0096
6962.00,1.0170
6961.00,1.0244
6960.00,1.0320
6959.00,1.0396
6958.00,1.0471
6957.00,1.0543
6956.00,1.0610
6955.00,1.0670
6954.00,1.0725
6953.00,1.0779
6952.00,1.0837
6951.00,1.0896
6950.00,1.0953
6949.00,1.1008
6948.00,1.1062
6947.00,1.1112
6946.00,1.1155
6945.00,1.1192
6944.00,1.1225
6943.00,1.1253
6942.00,1.1277
6941.00,1.1297
6940.00,1.1317
6939.00,1.1336
6938.00,1.1354
6937.00,1.1369
6936.00,1.1381
6935.00,1.1391
6934.00,1.1397
6933.00,1.1397
6932.00,1.1390
6931.00,1.1381
6930.00,1.1372
6929.00,1.1361
6928.00,1.1349
6927.00,1.1335
6926.00,1.1319
6925.00,1.1299
6924.00,1.1273
6923.00,1.1239
6922.00,1.1199
6921.00,1.1156
6920.00,1.1113
6919.00,1.1071
6918.00,1.1030
6917.00,1.0988
6916.00,1.0940
6915.00,1.0885
6914.00,1.0826
6913.00,1.0763
6912.00,1.0696
6911.00,1.0626
6910.00,1.0555
6909.00,1.0482
6908.00,1.0409
6907.00,1.0334
6906.00,1.0256
6905.00,1.0177
6904.00,1.0095
6903.00,1.0009
6902.00,0.9922
6901.00,0.9834
6900.00,0.9744
6899.00,0.9652
6898.00,0.9559
6897.00,0.9467
6896.00,0.9377
6895.00,0.9286
6894.00,0.9193
6893.00,0.9101
6892.00,0.9008
6891.00,0.8913
6890.00,0.8817
6889.00,0.8722
6888.00,0.8631
6887.00,0.8543
6886.00,0.8458
6885.00,0.8374
6884.00,0.8293
6883.00,0.8214
6882.00,0.8139
6881.00,0.8068
6880.00,0.8001
6879.00,0.7935
6878.00,0.7870
6877.00,0.7809
6876.00,0.7751
6875.00,0.7697
6874.00,0.7645
6873.00,0.7597
6872.00,0.7554
6871.00,0.7517
6870.00,0.7484
6869.00,0.7455
6868.00,0.7429
6867.00,0.7407
6866.00,0.7391
6865.00,0.7380
6864.00,0.7375
6863.00,0.7375
6862.00,0.7379
6861.00,0.7389
6860.00,0.7403
6859.00,0.7419
6858.00,0.7439
6857.00,0.7462
6856.00,0.7490
6855.00,0.7524
6854.00,0.7565
6853.00,0.7611
6852.00,0.7663
6851.00,0.7718
6850.00,0.7776
6849.00,0.7837
6848.00,0.7899
6847.00,0.7961
6846.00,0.8024
6845.00,0.8092
6844.00,0.8165
6843.00,0.8240
6842.00,0.8319
6841.00,0.8400
6840.00,0.8483
6839.00,0.8567
6838.00,0.8651
6837.00,0.8735
6836.00,0.8820
6835.00,0.8907
6834.00,0.8994
6833.00,0.9084
6832.00,0.9174
6831.00,0.9265
6830.00,0.9354
6829.00,0.9441
6828.00,0.9529
6827.00,0.9618
6826.00,0.9707
6825.00,0.9795
6824.00,0.9883
6823.00,0.9974
6822.00,1.0065
6821.00,1.0155
6820.00,1.0241
6819.00,1.0323
6818.00,1.0403
6817.00,1.0481
6816.00,1.0558
6815.00,1.0633
6814.00,1.0709
6813.00,1.0785
6812.00,1.0860
6811.00,1.0932
6810.00,1.1001
6809.00,1.1065
6808.00,1.1124
6807.00,1.1180
6806.00,1.1235
6805.00,1.1291
6804.00,1.1346
6803.00,1.1398
6802.00,1.1448
6801.00,1.1494
6800.00,1.1535
6799.00,1.1570
6798.00,1.1601
6797.00,1.1630
6796.00,1.1660
6795.00,1.1692
6794.00,1.1723
6793.00,1.1752
6792.00,1.1774
6791.00,1.1790
6790.00,1.1800
6789.00,1.1807
6788.00,1.1812
6787.00,1.1812
6786.00,1.1807
6785.00,1.1798
6784.00,1.1788
6783.00,1.1777
6782.00,1.1761
6781.00,1.1741
6780.00,1.1717
6779.00,1.1693
6778.00,1.1665
6777.00,1.1633
6776.00,1.1595
6775.00,1.1553
6774.00,1.1507
6773.00,1.1456
6772.00,1.1403
6771.00,1.1350
6770.00,1.1297
6769.00,1.1240
6768.00,1.1180
6767.00,1.1117
6766.00,1.1051
6765.00,1.0982
6764.00,1.0909
6763.00,1.0833
6762.00,1.0757
6761.00,1.0681
6760.00,1.0600
6759.00,1.0515
6758.00,1.0427
6757.00,1.0337
6756.00,1.0243
6755.00,1.0146
6754.00,1.0048
6753.00,0.9951
6752.00,0.9856
6751.00,0.9760
6750.00,0.9664
6749.00,0.9570
6748.00,0.9475
6747.00,0.9380
6746.00,0.9283
6745.00,0.9187
6744.00,0.9089
6743.00,0.8992
6742.00,0.8896
6741.00,0.8805
6740.00,0.8716
6739.00,0.8629
6738.00,0.8542
6737.00,0.8458
6736.00,0.8378
6735.00,0.8302
6734.00,0.8229
6733.00,0.8158
6732.00,0.8091
6731.00,0.8029
6730.00,0.7972
6729.00,0.7919
6728.00,0.7870
6727.00,0.7825
6726.00,0.7786
6725.00,0.7753
6724.00,0.7725
6723.00,0.7701
6722.00,0.7683
6721.00,0.7672
6720.00,0.7667
6719.00,0.7667
6718.00,0.7671
6717.00,0.7679
6716.00,0.7691
6715.00,0.7707
6714.00,0.7728
6713.00,0.7754
6712.00,0.7784
6711.00,0.7820
6710.00,0.7861
6709.00,0.7909
6708.00,0.7960
6707.00,0.8014
6706.00,0.8071
6705.00,0.8132
6704.00,0.8197
6703.00,0.8265
6702.00,0.8335
6701.00,0.8409
6700.00,0.8485
6699.00,0.8563
6698.00,0.8643
6697.00,0.8726
6696.00,0.8810
6695.00,0.8895
6694.00,0.8981
6693.00,0.9070
6692.00,0.9160
6691.00,0.9248
6690.00,0.9334
6689.00,0.9420
6688.00,0.9506
6687.00,0.9591
6686.00,0.9678
6685.00,0.9766
6684.00,0.9856
6683.00,0.9944
6682.00,1.0028
6681.00,1.0111
6680.00,1.0195
6679.00,1.0280
6678.00,1.0365
6677.00,1.0450
6676.00,1.0535
6675.00,1.0621
6674.00,1.0704
6673.00,1.0783
6672.00,1.0856
6671.00,1.0924
6670.00,1.0988
6669.00,1.1051
6668.00,1.1113
6667.00,1.1174
6666.00,1.1232
6665.00,1.1288
6664.00,1.1343
6663.00,1.1393
6662.00,1.1438
6661.00,1.1479
6660.00,1.1518
6659.00,1.1556
6658.00,1.1591
6657.00,1.1625
6656.00,1.1658
6655.00,1.1690
6654.00,1.1717
6653.00,1.1739
6652.00,1.1756
6651.00,1.1768
6650.00,1.1779
6649.00,1.1788
6648.00,1.1793
6647.00,1.1794
6646.00,1.1793
6645.00,1.1789
6644.00,1.1780
6643.00,1.1765
6642.00,1.1744
6641.00,1.1721
6640.00,1.1696
6639.00,1.1668
6638.00,1.1639
6637.00,1.1610
6636.00,1.1580
6635.00,1.1545
6634.00,1.1503
6633.00,1.1455
6632.00,1.1405
6631.00,1.1353
6630.00,1.1297
6629.00,1.1237
6628.00,1.1173
6627.00,1.1107
6626.00,1.1038
6625.00,1.0967
6624.00,1.0894
6623.00,1.0818
6622.00,1.0740
6621.00,1.0657
6620.00,1.0572
6619.00,1.0485
6618.00,1.0397
6617.00,1.0307
6616.00,1.0214
6615.00,1.0121
6614.00,1.0026
6613.00,0.9931
6612.00,0.9834
6611.00,0.9736
6610.00,0.9639
6609.00,0.9541
6608.00,0.9444
6607.00,0.9347
6606.00,0.9250
6605.00,0.9154
6604.00,0.9057
6603.00,0.8960
6602.00,0.8863
6601.00,0.8771
6600.00,0.8681
6599.00,0.8592
6598.00,0.8505
6597.00,0.8422
6596.00,0.8341
6595.00,0.8262
6594.00,0.8185
6593.00,0.8111
6592.00,0.8040
6591.00,0.7973
6590.00,0.7909
6589.00,0.7849
6588.00,0.7793
6587.00,0.7741
6586.00,0.7693
6585.00,0.7649
6584.00,0.7610
6583.00,0.7575
6582.00,0.7547
6581.00,0.7525
6580.00,0.7508
6579.00,0.7495
6578.00,0.7486
6577.00,0.7481
6576.00,0.7480
6575.00,0.7484
6574.00,0.7494
6573.00,0.7510
6572.00,0.7532
6571.00,0.7559
6570.00,0.7592
6569.00,0.7631
6568.00,0.7674
6567.00,0.7719
6566.00,0.7767
6565.00,0.7821
6564.00,0.7878
6563.00,0.7938
6562.00,0.8001
6561.00,0.8068
6560.00,0.8140
6559.00,0.8217
6558.00,0.8296
6557.00,0.8377
6556.00,0.8459
6555.00,0.8543
6554.00,0.8628
6553.00,0.8714
6552.00,0.8803
6551.00,0.8896
6550.00,0.8990
6549.00,0.9085
6548.00,0.9180
6547.00,0.9275
6546.00,0.9369
6545.00,0.9460
6544.00,0.9550
6543.00,0.9639
6542.00,0.9732
6541.00,0.9826
6540.00,0.9920
6539.00,1.0014
6538.00,1.0107
6537.00,1.0201
6536.00,1.0294
6535.00,1.0385
6534.00,1.0477
6533.00,1.0566
6532.00,1.0650
6531.00,1.0728
6530.00,1.0802
6529.00,1.0877
6528.00,1.0950
6527.00,1.1022
6526.00,1.1095
6525.00,1.1168
6524.00,1.1243
6523.00,1.1316
6522.00,1.1386
6521.00,1.1450
6520.00,1.1511
6519.00,1.1567
6518.00,1.1618
6517.00,1.1665
6516.00,1.1705
6515.00,1.1741
6514.00,1.1776
6513.00,1.1811
6512.00,1.1846
6511.00,1.1879
6510.00,1.1911
6509.00,1.1940
6508.00,1.1966
6507.00,1.1988
6506.00,1.2007
6505.00,1.2022
6504.00,1.2034
6503.00,1.2042
6502.00,1.2042
6501.00,1.2035
6500.00,1.2025
6499.00,1.2013
6498.00,1.2001
6497.00,1.1985
6496.00,1.1963
6495.00,1.1940
6494.00,1.1918
6493.00,1.1893
6492.00,1.1862
6491.00,1.1824
6490.00,1.1783
6489.00,1.1739
6488.00,1.1692
6487.00,1.1643
6486.00,1.1592
6485.00,1.1540
6484.00,1.1483
6483.00,1.1420
6482.00,1.1353
6481.00,1.1285
6480.00,1.1212
6479.00,1.1135
6478.00,1.1054
6477.00,1.0971
6476.00,1.0885
6475.00,1.0795
6474.00,1.0701
6473.00,1.0606
6472.00,1.0511
6471.00,1.0416
6470.00,1.0321
6469.00,1.0224
6468.00,1.0125
6467.00,1.0022
6466.00,0.9917
6465.00,0.9812
6464.00,0.9708
6463.00,0.9604
6462.00,0.9500
6461.00,0.9396
6460.00,0.9291
6459.00,0.9187
6458.00,0.9085
6457.00,0.8984
6456.00,0.8884
6455.00,0.8784
6454.00,0.8686
6453.00,0.8590
6452.00,0.8496
6451.00,0.8404
6450.00,0.8317
6449.00,0.8233
6448.00,0.8154
6447.00,0.8079
6446.00,0.8008
6445.00,0.7943
6444.00,0.7883
6443.00,0.7827
6442.00,0.7777
6441.00,0.7733
6440.00,0.7694
6439.00,0.7659
6438.00,0.7628
6437.00,0.7603
6436.00,0.7583
6435.00,0.7569
6434.00,0.7560
6433.00,0.7558
6432.00,0.7561
6431.00,0.7570
6430.00,0.7583
6429.00,0.7603
6428.00,0.7627
6427.00,0.7657
6426.00,0.7693
6425.00,0.7735
6424.00,0.7782
6423.00,0.7834
6422.00,0.7890
6421.00,0.7951
6420.00,0.8014
6419.00,0.8080
6418.00,0.8149
6417.00,0.8221
6416.00,0.8296
6415.00,0.8374
6414.00,0.8455
6413.00,0.8539
6412.00,0.8624
6411.00,0.8708
6410.00,0.8794
6409.00,0.8884
6408.00,0.8977
6407.00,0.9070
6406.00,0.9164
6405.00,0.9259
6404.00,0.9355
6403.00,0.9451
6402.00,0.9545
6401.00,0.9635
6400.00,0.9724
6399.00,0.9813
6398.00,0.9905
6397.00,0.9997
6396.00,1.0089
6395.00,1.0178
6394.00,1.0267
6393.00,1.0357
6392.00,1.0447
6391.00,1.0533
6390.00,1.0615
6389.00,1.0697
6388.00,1.0779
6387.00,1.0860
6386.00,1.0936
6385.00,1.1010
6384.00,1.1082
6383.00,1.1152
6382.00,1.1217
6381.00,1.1277
6380.00,1.1335
6379.00,1.1390
6378.00,1.1442
6377.00,1.1494
6376.00,1.1546
6375.00,1.1598
6374.00,1.1646
6373.00,1.1687
6372.00,1.1720
6371.00,1.1748
6370.00,1.1773
6369.00,1.1797
6368.00,1.1820
6367.00,1.1841
6366.00,1.1862
6365.00,1.1882
6364.00,1.1898
6363.00,1.1905
6362.00,1.1905
6361.00,1.1901
6360.00,1.1898
6359.00,1.1894
6358.00,1.1886
6357.00,1.1871
6356.00,1.1852
6355.00,1.1830
6354.00,1.1804
6353.00,1.1775
6352.00,1.1743
6351.00,1.1708
6350.00,1.1674
6349.00,1.1638
6348.00,1.1596
6347.00,1.1548
6346.00,1.1496
6345.00,1.1442
6344.00,1.1386
6343.00,1.1328
6342.00,1.1266
6341.00,1.1204
6340.00,1.1142
6339.00,1.1080
6338.00,1.1016
6337.00,1.0951
6336.00,1.0886
6335.00,1.0819
6334.00,1.0751
6333.00,1.0680
6332.00,1.0604
6331.00,1.0523
6330.00,1.0438
6329.00,1.0350
6328.00,1.0258
6327.00,1.0160
6326.00,1.0058
6325.00,0.9954
6324.00,0.9846
6323.00,0.9735
6322.00,0.9621
6321.00,0.9508
6320.00,0.9395
6319.00,0.9280
6318.00,0.9164
6317.00,0.9047
6316.00,0.8932
6315.00,0.8817
6314.00,0.8704
6313.00,0.8595
6312.00,0.8490
6311.00,0.8390
6310.00,0.8294
6309.00,0.8201
6308.00,0.8112
6307.00,0.8026
6306.00,0.7945
6305.00,0.7868
6304.00,0.7795
6303.00,0.7726
6302.00,0.7661
6301.00,0.7600
6300.00,0.7543
6299.00,0.7493
6298.00,0.7448
6297.00,0.7411
6296.00,0.7378
6295.00,0.7351
6294.00,0.7329
6293.00,0.7313
6292.00,0.7302
6291.00,0.7295
6290.00,0.7295
6289.00,0.7302
6288.00,0.7314
6287.00,0.7333
6286.00,0.7358
6285.00,0.7389
6284.00,0.7425
6283.00,0.7466
6282.00,0.7511
6281.00,0.7561
6280.00,0.7613
6279.00,0.7669
6278.00,0.7731
6277.00,0.7798
6276.00,0.7870
6275.00,0.7944
6274.00,0.8022
6273.00,0.8103
6272.00,0.8187
6271.00,0.8272
6270.00,0.8357
6269.00,0.8444
6268.00,0.8535
6267.00,0.8628
6266.00,0.8725
6265.00,0.8823
6264.00,0.8922
6263.00,0.9020
6262.00,0.9117
6261.00,0.9213
6260.00,0.9309
6259.00,0.9405
6258.00,0.9503
6257.00,0.9603
6256.00,0.9706
6255.00,0.9808
6254.00,0.9908
6253.00,1.0005
6252.00,1.0100
6251.00,1.0194
6250.00,1.0287
6249.00,1.0378
6248.00,1.0466
6247.00,1.0554
6246.00,1.0642
6245.00,1.0730
6244.00,1.0815
6243.00,1.0897
6242.00,1.0981
6241.00,1.1066
6240.00,1.1146
6239.00,1.1218
6238.00,1.1284
6237.00,1.1350
6236.00,1.1417
6235.00,1.1480
6234.00,1.1540
6233.00,1.1598
6232.00,1.1654
6231.00,1.1703
6230.00,1.1746
6229.00,1.1785
6228.00,1.1825
6227.00,1.1863
6226.00,1.1897
6225.00,1.1924
6224.00,1.1945
6223.00,1.1965
6222.00,1.1984
6221.00,1.2002
6220.00,1.2017
6219.00,1.2030
6218.00,1.2039
6217.00,1.2042
6216.00,1.2036
6215.00,1.2024
6214.00,1.2012
6213.00,1.2001
6212.00,1.1992
6211.00,1.1979
6210.00,1.1962
6209.00,1.1939
6208.00,1.1911
6207.00,1.1877
6206.00,1.1838
6205.00,1.1795
6204.00,1.1750
6203.00,1.1701
6202.00,1.1651
6201.00,1.1599
6200.00,1.1541
6199.00,1.1480
6198.00,1.1416
6197.00,1.1350
6196.00,1.1280
6195.00,1.1206
6194.00,1.1129
6193.00,1.1053
6192.00,1.0975
6191.00,1.0892
6190.00,1.0803
6189.00,1.0708
6188.00,1.0610
6187.00,1.0509
6186.00,1.0405
6185.00,1.0300
6184.00,1.0195
6183.00,1.0089
6182.00,0.9984
6181.00,0.9876
6180.00,0.9765
6179.00,0.9654
6178.00,0.9544
6177.00,0.9436
6176.00,0.9328
