Created as New Dataset,Sample 049 By Administrator Date Wednesday, November 24 2021
cm-1,A
7502.00,0.8035
7501.00,0.8088
7500.00,0.8137
7499.00,0.8178
7498.00,0.8209
7497.00,0.8233
7496.00,0.8256
7495.00,0.8276
7494.00,0.8293
7493.00,0.8312
7492.00,0.8338
7491.00,0.8370
7490.00,0.8403
7489.00,0.8432
7488.00,0.8454
7487.00,0.8468
7486.00,0.8467
7485.00,0.8449
7484.00,0.8421
7483.00,0.8395
7482.00,0.8373
7481.00,0.8351
7480.00,0.8324
7479.00,0.8294
7478.00,0.8265
7477.00,0.8238
7476.00,0.8210
7475.00,0.8183
7474.00,0.8155
7473.00,0.8127
7472.00,0.8095
7471.00,0.8058
7470.00,0.8013
7469.00,0.7958
7468.00,0.7894
7467.00,0.7827
7466.00,0.7766
7465.00,0.7706
7464.00,0.7639
7463.00,0.7557
7462.00,0.7466
7461.00,0.7373
7460.00,0.7283
7459.00,0.7194
7458.00,0.7106
7457.00,0.7022
7456.00,0.6945
7455.00,0.6875
7454.00,0.6809
7453.00,0.6744
7452.00,0.6677
7451.00,0.6606
7450.00,0.6534
7449.00,0.6465
7448.00,0.6400
7447.00,0.6338
7446.00,0.6279
7445.00,0.6223
7444.00,0.6164
7443.00,0.6101
7442.00,0.6038
7441.00,0.5978
7440.00,0.5922
7439.00,0.5869
7438.00,0.5817
7437.00,0.5766
7436.00,0.5717
7435.00,0.5672
7434.00,0.5633
7433.00,0.5598
7432.00,0.5566
7431.00,0.5537
7430.00,0.5512
7429.00,0.5493
7428.00,0.5480
7427.00,0.5470
7426.00,0.5464
7425.00,0.5459
7424.00,0.5451
7423.00,0.5439
7422.00,0.5429
7421.00,0.5425
7420.00,0.5427
7419.00,0.5430
7418.00,0.5432
7417.00,0.5437
7416.00,0.5449
7415.00,0.5468
7414.00,0.5491
7413.00,0.5520
7412.00,0.5552
7411.00,0.5588
7410.00,0.5626
7409.00,0.5670
7408.00,0.5720
7407.00,0.5774
7406.00,0.5831
7405.00,0.5891
7404.00,0.5955
7403.00,0.6020
7402.00,0.6087
7401.00,0.6157
7400.00,0.6230
7399.00,0.6303
7398.00,0.6377
7397.00,0.6454
7396.00,0.6535
7395.00,0.6619
7394.00,0.6704
7393.00,0.6789
7392.00,0.6875
7391.00,0.6961
7390.00,0.7044
7389.00,0.7125
7388.00,0.7206
7387.00,0.7293
7386.00,0.7385
7385.00,0.7480
7384.00,0.7574
7383.00,0.7667
7382.00,0.7761
7381.00,0.7859
7380.00,0.7960
7379.00,0.8058
7378.00,0.8150
7377.00,0.8239
7376.00,0.8328
7375.00,0.8418
7374.00,0.8503
7373.00,0.8578
7372.00,0.8648
7371.00,0.8717
7370.00,0.8790
7369.00,0.8868
7368.00,0.8945
7367.00,0.9020
7366.00,0.9092
7365.00,0.9160
7364.00,0.9223
7363.00,0.9283
7362.00,0.9343
7361.00,0.9406
7360.00,0.9472
7359.00,0.9542
7358.00,0.9610
7357.00,0.9673
7356.00,0.9728
7355.00,0.9776
7354.00,0.9822
7353.00,0.9865
7352.00,0.9903
7351.00,0.9936
7350.00,0.9966
7349.00,0.9996
7348.00,1.0021
7347.00,1.0036
7346.00,1.0040
7345.00,1.0043
7344.00,1.0050
7343.00,1.0061
7342.00,1.0069
7341.00,1.0074
7340.00,1.0081
7339.00,1.0089
7338.00,1.0093
7337.00,1.0084
7336.00,1.0060
7335.00,1.0030
7334.00,1.0003
7333.00,0.9979
7332.00,0.9953
7331.00,0.9921
7330.00,0.9887
7329.00,0.9855
7328.00,0.9822
7327.00,0.9783
7326.00,0.9736
7325.00,0.9683
7324.00,0.9630
7323.00,0.9580
7322.00,0.9529
7321.00,0.9476
7320.00,0.9420
7319.00,0.9362
7318.00,0.9300
7317.00,0.9232
7316.00,0.9157
7315.00,0.9077
7314.00,0.8998
7313.00,0.8922
7312.00,0.8848
7311.00,0.8776
7310.00,0.8702
7309.00,0.8623
7308.00,0.8540
7307.00,0.8453
7306.00,0.8364
7305.00,0.8273
7304.00,0.8179
7303.00,0.8086
7302.00,0.7996
7301.00,0.7913
7300.00,0.7836
7299.00,0.7761
7298.00,0.7688
7297.00,0.7614
7296.00,0.7538
7295.00,0.7463
7294.00,0.7389
7293.00,0.7319
7292.00,0.7254
7291.00,0.7192
7290.00,0.7133
7289.00,0.7076
7288.00,0.7023
7287.00,0.6972
7286.00,0.6925
7285.00,0.6881
7284.00,0.6839
7283.00,0.6801
7282.00,0.6767
7281.00,0.6736
7280.00,0.6708
7279.00,0.6686
7278.00,0.6671
7277.00,0.6663
7276.00,0.6659
7275.00,0.6659
7274.00,0.6665
7273.00,0.6678
7272.00,0.6695
7271.00,0.6711
7270.00,0.6728
7269.00,0.6751
7268.00,0.6782
7267.00,0.6820
7266.00,0.6861
7265.00,0.6904
7264.00,0.6949
7263.00,0.6996
7262.00,0.7044
7261.00,0.7095
7260.00,0.7149
7259.00,0.7209
7258.00,0.7275
7257.00,0.7346
7256.00,0.7419
7255.00,0.7493
7254.00,0.7569
7253.00,0.7646
7252.00,0.7723
7251.00,0.7799
7250.00,0.7876
7249.00,0.7954
7248.00,0.8033
7247.00,0.8113
7246.00,0.8193
7245.00,0.8274
7244.00,0.8357
7243.00,0.8440
7242.00,0.8526
7241.00,0.8614
7240.00,0.8702
7239.00,0.8791
7238.00,0.8879
7237.00,0.8968
7236.00,0.9056
7235.00,0.9140
7234.00,0.9217
7233.00,0.9291
7232.00,0.9361
7231.00,0.9431
7230.00,0.9500
7229.00,0.9573
7228.00,0.9650
7227.00,0.9726
7226.00,0.9800
7225.00,0.9871
7224.00,0.9940
7223.00,1.0005
7222.00,1.0064
7221.00,1.0115
7220.00,1.0157
7219.00,1.0198
7218.00,1.0241
7217.00,1.0287
7216.00,1.0329
7215.00,1.0364
7214.00,1.0391
7213.00,1.0417
7212.00,1.0447
7211.00,1.0478
7210.00,1.0505
7209.00,1.0527
7208.00,1.0547
7207.00,1.0566
7206.00,1.0588
7205.00,1.0609
7204.00,1.0627
7203.00,1.0637
7202.00,1.0638
7201.00,1.0631
7200.00,1.0619
7199.00,1.0604
7198.00,1.0590
7197.00,1.0575
7196.00,1.0560
7195.00,1.0548
7194.00,1.0537
7193.00,1.0525
7192.00,1.0507
7191.00,1.0482
7190.00,1.0451
7189.00,1.0414
7188.00,1.0370
7187.00,1.0317
7186.00,1.0258
7185.00,1.0199
7184.00,1.0143
7183.00,1.0084
7182.00,1.0022
7181.00,0.9957
7180.00,0.9894
7179.00,0.9833
7178.00,0.9771
7177.00,0.9708
7176.00,0.9642
7175.00,0.9575
7174.00,0.9507
7173.00,0.9436
7172.00,0.9360
7171.00,0.9277
7170.00,0.9189
7169.00,0.9098
7168.00,0.9007
7167.00,0.8915
7166.00,0.8823
7165.00,0.8732
7164.00,0.8644
7163.00,0.8559
7162.00,0.8476
7161.00,0.8394
7160.00,0.8311
7159.00,0.8227
7158.00,0.8145
7157.00,0.8065
7156.00,0.7988
7155.00,0.7913
7154.00,0.7837
7153.00,0.7763
7152.00,0.7691
7151.00,0.7624
7150.00,0.7561
7149.00,0.7501
7148.00,0.7441
7147.00,0.7383
7146.00,0.7331
7145.00,0.7284
7144.00,0.7242
7143.00,0.7201
7142.00,0.7163
7141.00,0.7128
7140.00,0.7097
7139.00,0.7069
7138.00,0.7047
7137.00,0.7028
7136.00,0.7013
7135.00,0.7002
7134.00,0.6995
7133.00,0.6995
7132.00,0.6998
7131.00,0.7005
7130.00,0.7014
7129.00,0.7027
7128.00,0.7044
7127.00,0.7067
7126.00,0.7096
7125.00,0.7130
7124.00,0.7169
7123.00,0.7210
7122.00,0.7257
7121.00,0.7309
7120.00,0.7366
7119.00,0.7424
7118.00,0.7483
7117.00,0.7545
7116.00,0.7610
7115.00,0.7678
7114.00,0.7748
7113.00,0.7818
7112.00,0.7890
7111.00,0.7964
7110.00,0.8042
7109.00,0.8124
7108.00,0.8206
7107.00,0.8286
7106.00,0.8367
7105.00,0.8451
7104.00,0.8538
7103.00,0.8624
7102.00,0.8711
7101.00,0.8802
7100.00,0.8896
7099.00,0.8988
7098.00,0.9077
7097.00,0.9164
7096.00,0.9249
7095.00,0.9332
7094.00,0.9411
7093.00,0.9488
7092.00,0.9566
7091.00,0.9647
7090.00,0.9731
7089.00,0.9814
7088.00,0.9897
7087.00,0.9980
7086.00,1.0060
7085.00,1.0134
7084.00,1.0204
7083.00,1.0271
7082.00,1.0339
7081.00,1.0407
7080.00,1.0476
7079.00,1.0544
7078.00,1.0610
7077.00,1.0675
7076.00,1.0735
7075.00,1.0790
7074.00,1.0841
7073.00,1.0885
7072.00,1.0924
7071.00,1.0959
7070.00,1.0997
7069.00,1.1039
7068.00,1.1082
7067.00,1.1124
7066.00,1.1162
7065.00,1.1196
7064.00,1.1224
7063.00,1.1243
7062.00,1.1255
7061.00,1.1264
7060.00,1.1270
7059.00,1.1276
7058.00,1.1280
7057.00,1.1283
7056.00,1.1284
7055.00,1.1282
7054.00,1.1277
7053.00,1.1270
7052.00,1.1257
7051.00,1.1240
7050.00,1.1221
7049.00,1.1205
7048.00,1.1187
7047.00,1.1163
7046.00,1.1130
7045.00,1.1094
7044.00,1.1057
7043.00,1.1016
7042.00,1.0970
7041.00,1.0918
7040.00,1.0863
7039.00,1.0803
7038.00,1.0739
7037.00,1.0673
7036.00,1.0607
7035.00,1.0545
7034.00,1.0484
7033.00,1.0421
7032.00,1.0355
7031.00,1.0285
7030.00,1.0212
7029.00,1.0137
7028.00,1.0059
7027.00,0.9973
7026.00,0.9880
7025.00,0.9783
7024.00,0.9688
7023.00,0.9596
7022.00,0.9504
7021.00,0.9411
7020.00,0.9319
7019.00,0.9230
7018.00,0.9142
7017.00,0.9053
7016.00,0.8961
7015.00,0.8867
7014.00,0.8774
7013.00,0.8686
7012.00,0.8600
7011.00,0.8518
7010.00,0.8437
7009.00,0.8358
7008.00,0.8279
7007.00,0.8201
7006.00,0.8125
7005.00,0.8052
7004.00,0.7982
7003.00,0.7914
7002.00,0.7851
7001.00,0.7796
7000.00,0.7747
6999.00,0.7702
6998.00,0.7659
6997.00,0.7619
6996.00,0.7585
6995.00,0.7556
6994.00,0.7532
6993.00,0.7510
6992.00,0.7489
6991.00,0.7472
6990.00,0.7464
6989.00,0.7465
6988.00,0.7472
6987.00,0.7480
6986.00,0.7492
6985.00,0.7511
6984.00,0.7537
6983.00,0.7568
6982.00,0.7602
6981.00,0.7638
6980.00,0.7679
6979.00,0.7724
6978.00,0.7774
6977.00,0.7826
6976.00,0.7882
6975.00,0.7942
6974.00,0.8005
6973.00,0.8072
6972.00,0.8142
6971.00,0.8212
6970.00,0.8284
6969.00,0.8358
6968.00,0.8434
6967.00,0.8510
6966.00,0.8588
6965.00,0.8669
6964.00,0.8753
6963.00,0.8837
6962.00,0.8922
6961.00,0.9007
6960.00,0.9092
6959.00,0.9176
6958.00,0.9259
6957.00,0.9342
6956.00,0.9426
6955.00,0.9510
6954.00,0.9593
6953.00,0.9677
6952.00,0.9760
6951.00,0.9843
6950.00,0.9925
6949.00,1.0002
6948.00,1.0075
6947.00,1.0146
6946.00,1.0220
6945.00,1.0298
6944.00,1.0375
6943.00,1.0449
6942.00,1.0520
6941.00,1.0590
6940.00,1.0655
6939.00,1.0717
6938.00,1.0776
6937.00,1.0837
6936.00,1.0897
6935.00,1.0955
6934.00,1.1010
6933.00,1.1064
6932.00,1.1116
6931.00,1.1163
6930.00,1.1203
6929.00,1.1238
6928.00,1.1274
6927.00,1.1311
6926.00,1.1347
6925.00,1.1377
6924.00,1.1401
6923.00,1.1418
6922.00,1.1431
6921.00,1.1442
6920.00,1.1448
6919.00,1.1450
6918.00,1.1448
6917.00,1.1445
6916.00,1.1442
6915.00,1.1438
6914.00,1.1430
6913.00,1.1418
6912.00,1.1402
6911.00,1.1386
6910.00,1.1369
6909.00,1.1350
6908.00,1.1327
6907.00,1.1295
6906.00,1.1257
6905.00,1.1213
6904.00,1.1164
6903.00,1.1111
6902.00,1.1060
6901.00,1.1009
6900.00,1.0957
6899.00,1.0898
6898.00,1.0835
6897.00,1.0772
6896.00,1.0709
6895.00,1.0640
6894.00,1.0565
6893.00,1.0488
6892.00,1.0412
6891.00,1.0337
6890.00,1.0260
6889.00,1.0181
6888.00,1.0101
6887.00,1.0017
6886.00,0.9930
6885.00,0.9842
6884.00,0.9753
6883.00,0.9663
6882.00,0.9568
6881.00,0.9470
6880.00,0.9372
6879.00,0.9276
6878.00,0.9183
6877.00,0.9090
6876.00,0.8995
6875.00,0.8899
6874.00,0.8806
6873.00,0.8717
6872.00,0.8631
6871.00,0.8546
6870.00,0.8460
6869.00,0.8377
6868.00,0.8298
6867.00,0.8222
6866.00,0.8148
6865.00,0.8075
6864.00,0.8004
6863.00,0.7936
6862.00,0.7873
6861.00,0.7813
6860.00,0.7758
6859.00,0.7707
6858.00,0.7661
6857.00,0.7620
6856.00,0.7581
6855.00,0.7545
6854.00,0.7514
6853.00,0.7486
6852.00,0.7463
6851.00,0.7443
6850.00,0.7427
6849.00,0.7417
6848.00,0.7414
6847.00,0.7417
6846.00,0.7423
6845.00,0.7434
6844.00,0.7449
6843.00,0.7470
6842.00,0.7495
6841.00,0.7522
6840.00,0.7552
6839.00,0.7588
6838.00,0.7630
6837.00,0.7677
6836.00,0.7726
6835.00,0.7779
6834.00,0.7838
6833.00,0.7901
6832.00,0.7965
6831.00,0.8030
6830.00,0.8098
6829.00,0.8170
6828.00,0.8244
6827.00,0.8319
6826.00,0.8396
6825.00,0.8477
6824.00,0.8561
6823.00,0.8645
6822.00,0.8731
6821.00,0.8819
6820.00,0.8906
6819.00,0.8993
6818.00,0.9078
6817.00,0.9165
6816.00,0.9254
6815.00,0.9345
6814.00,0.9438
6813.00,0.9532
6812.00,0.9623
6811.00,0.9712
6810.00,0.9800
6809.00,0.9887
6808.00,0.9974
6807.00,1.0060
6806.00,1.0144
6805.00,1.0229
6804.00,1.0317
6803.00,1.0404
6802.00,1.0487
6801.00,1.0566
6800.00,1.0644
6799.00,1.0723
6798.00,1.0801
6797.00,1.0876
6796.00,1.0945
6795.00,1.1009
6794.00,1.1070
6793.00,1.1131
6792.00,1.1192
6791.00,1.1251
6790.00,1.1306
6789.00,1.1358
6788.00,1.1407
6787.00,1.1454
6786.00,1.1497
6785.00,1.1538
6784.00,1.1576
6783.00,1.1616
6782.00,1.1658
6781.00,1.1700
6780.00,1.1738
6779.00,1.1768
6778.00,1.1787
6777.00,1.1798
6776.00,1.1806
6775.00,1.1811
6774.00,1.1815
6773.00,1.1818
6772.00,1.1822
6771.00,1.1826
6770.00,1.1830
6769.00,1.1830
6768.00,1.1823
6767.00,1.1808
6766.00,1.1787
6765.00,1.1762
6764.00,1.1735
6763.00,1.1704
6762.00,1.1671
6761.00,1.1638
6760.00,1.1607
6759.00,1.1572
6758.00,1.1530
6757.00,1.1482
6756.00,1.1428
6755.00,1.1367
6754.00,1.1298
6753.00,1.1226
6752.00,1.1155
6751.00,1.1090
6750.00,1.1028
6749.00,1.0966
6748.00,1.0899
6747.00,1.0827
6746.00,1.0750
6745.00,1.0666
6744.00,1.0576
6743.00,1.0483
6742.00,1.0390
6741.00,1.0298
6740.00,1.0207
6739.00,1.0116
6738.00,1.0023
6737.00,0.9928
6736.00,0.9830
6735.00,0.9728
6734.00,0.9625
6733.00,0.9522
6732.00,0.9422
6731.00,0.9323
6730.00,0.9227
6729.00,0.9132
6728.00,0.9039
6727.00,0.8947
6726.00,0.8855
6725.00,0.8764
6724.00,0.8672
6723.00,0.8580
6722.00,0.8492
6721.00,0.8410
6720.00,0.8333
6719.00,0.8261
6718.00,0.8194
6717.00,0.8129
6716.00,0.8066
6715.00,0.8007
6714.00,0.7953
6713.00,0.7904
6712.00,0.7857
6711.00,0.7815
6710.00,0.7780
6709.00,0.7752
6708.00,0.7729
6707.00,0.7708
6706.00,0.7692
6705.00,0.7682
6704.00,0.7678
6703.00,0.7678
6702.00,0.7683
6701.00,0.7695
6700.00,0.7713
6699.00,0.7737
6698.00,0.7765
6697.00,0.7799
6696.00,0.7838
6695.00,0.7880
6694.00,0.7927
6693.00,0.7978
6692.00,0.8033
6691.00,0.8091
6690.00,0.8149
6689.00,0.8210
6688.00,0.8276
6687.00,0.8345
6686.00,0.8416
6685.00,0.8489
6684.00,0.8567
6683.00,0.8650
6682.00,0.8737
6681.00,0.8824
6680.00,0.8910
6679.00,0.8995
6678.00,0.9081
6677.00,0.9168
6676.00,0.9256
6675.00,0.9343
6674.00,0.9430
6673.00,0.9518
6672.00,0.9608
6671.00,0.9699
6670.00,0.9789
6669.00,0.9878
6668.00,0.9966
6667.00,1.0054
6666.00,1.0140
6665.00,1.0225
6664.00,1.0307
6663.00,1.0388
6662.00,1.0468
6661.00,1.0549
6660.00,1.0629
6659.00,1.0710
6658.00,1.0789
6657.00,1.0866
6656.00,1.0938
6655.00,1.1006
6654.00,1.1071
6653.00,1.1133
6652.00,1.1192
6651.00,1.1249
6650.00,1.1306
6649.00,1.1362
6648.00,1.1417
6647.00,1.1468
6646.00,1.1515
6645.00,1.1558
6644.00,1.1597
6643.00,1.1634
6642.00,1.1669
6641.00,1.1704
6640.00,1.1734
6639.00,1.1759
6638.00,1.1779
6637.00,1.1798
6636.00,1.1815
6635.00,1.1829
6634.00,1.1837
6633.00,1.1841
6632.00,1.1841
6631.00,1.1837
6630.00,1.1829
6629.00,1.1817
6628.00,1.1802
6627.00,1.1783
6626.00,1.1763
6625.00,1.1743
6624.00,1.1718
6623.00,1.1687
6622.00,1.1651
6621.00,1.1612
6620.00,1.1571
6619.00,1.1527
6618.00,1.1480
6617.00,1.1428
6616.00,1.1369
6615.00,1.1304
6614.00,1.1237
6613.00,1.1171
6612.00,1.1106
6611.00,1.1040
6610.00,1.0972
6609.00,1.0904
6608.00,1.0834
6607.00,1.0759
6606.00,1.0678
6605.00,1.0592
6604.00,1.0503
6603.00,1.0412
6602.00,1.0320
6601.00,1.0227
6600.00,1.0134
6599.00,1.0040
6598.00,0.9944
6597.00,0.9847
6596.00,0.9749
6595.00,0.9650
6594.00,0.9552
6593.00,0.9454
6592.00,0.9356
6591.00,0.9257
6590.00,0.9160
6589.00,0.9066
6588.00,0.8973
6587.00,0.8880
6586.00,0.8787
6585.00,0.8695
6584.00,0.8607
6583.00,0.8521
6582.00,0.8437
6581.00,0.8355
6580.00,0.8275
6579.00,0.8197
6578.00,0.8122
6577.00,0.8051
6576.00,0.7983
6575.00,0.7919
6574.00,0.7859
6573.00,0.7804
6572.00,0.7755
6571.00,0.7709
6570.00,0.7667
6569.00,0.7628
6568.00,0.7594
6567.00,0.7563
6566.00,0.7538
6565.00,0.7519
6564.00,0.7506
6563.00,0.7497
6562.00,0.7493
6561.00,0.7495
6560.00,0.7503
6559.00,0.7515
6558.00,0.7532
6557.00,0.7554
6556.00,0.7581
6555.00,0.7613
6554.00,0.7651
6553.00,0.7695
6552.00,0.7743
6551.00,0.7794
6550.00,0.7849
6549.00,0.7908
6548.00,0.7970
6547.00,0.8037
6546.00,0.8106
6545.00,0.8178
6544.00,0.8254
6543.00,0.8333
6542.00,0.8415
6541.00,0.8498
6540.00,0.8581
6539.00,0.8665
6538.00,0.8751
6537.00,0.8840
6536.00,0.8931
6535.00,0.9021
6534.00,0.9111
6533.00,0.9203
6532.00,0.9296
6531.00,0.9390
6530.00,0.9484
6529.00,0.9580
6528.00,0.9676
6527.00,0.9771
6526.00,0.9865
6525.00,0.9958
6524.00,1.0049
6523.00,1.0141
6522.00,1.0233
6521.00,1.0327
6520.00,1.0420
6519.00,1.0510
6518.00,1.0598
6517.00,1.0682
6516.00,1.0761
6515.00,1.0837
6514.00,1.0912
6513.00,1.0990
6512.00,1.1067
6511.00,1.1141
6510.00,1.1211
6509.00,1.1277
6508.00,1.1340
6507.00,1.1397
6506.00,1.1451
6505.00,1.1504
6504.00,1.1558
6503.00,1.1610
6502.00,1.1661
6501.00,1.1709
6500.00,1.1754
6499.00,1.1795
6498.00,1.1835
6497.00,1.1872
6496.00,1.1905
6495.00,1.1936
6494.00,1.1965
6493.00,1.1992
6492.00,1.2013
6491.00,1.2027
6490.00,1.2035
6489.00,1.2040
6488.00,1.2044
6487.00,1.2045
6486.00,1.2042
6485.00,1.2035
6484.00,1.2024
6483.00,1.2008
6482.00,1.1989
6481.00,1.1968
6480.00,1.1944
6479.00,1.1916
6478.00,1.1884
6477.00,1.1850
6476.00,1.1814
6475.00,1.1773
6474.00,1.1729
6473.00,1.1681
6472.00,1.1632
6471.00,1.1580
6470.00,1.1525
6469.00,1.1465
6468.00,1.1401
6467.00,1.1335
6466.00,1.1267
6465.00,1.1197
6464.00,1.1122
6463.00,1.1043
6462.00,1.0960
6461.00,1.0874
6460.00,1.0784
6459.00,1.0691
6458.00,1.0597
6457.00,1.0501
6456.00,1.0402
6455.00,1.0300
6454.00,1.0196
6453.00,1.0094
6452.00,0.9991
6451.00,0.9886
6450.00,0.9781
6449.00,0.9677
6448.00,0.9574
6447.00,0.9470
6446.00,0.9364
6445.00,0.9259
6444.00,0.9157
6443.00,0.9056
6442.00,0.8954
6441.00,0.8851
6440.00,0.8750
6439.00,0.8652
6438.00,0.8558
6437.00,0.8467
6436.00,0.8378
6435.00,0.8292
6434.00,0.8210
6433.00,0.8134
6432.00,0.8062
6431.00,0.7995
6430.00,0.7932
6429.00,0.7874
6428.00,0.7820
6427.00,0.7769
6426.00,0.7721
6425.00,0.7679
6424.00,0.7643
6423.00,0.7615
6422.00,0.7593
6421.00,0.7578
6420.00,0.7567
6419.00,0.7561
6418.00,0.7560
6417.00,0.7565
6416.00,0.7576
6415.00,0.7594
6414.00,0.7621
6413.00,0.7654
6412.00,0.7691
6411.00,0.7730
6410.00,0.7772
6409.00,0.7817
6408.00,0.7866
6407.00,0.7919
6406.00,0.7979
6405.00,0.8044
6404.00,0.8113
6403.00,0.8186
6402.00,0.8261
6401.00,0.8340
6400.00,0.8421
6399.00,0.8502
6398.00,0.8585
6397.00,0.8671
6396.00,0.8758
6395.00,0.8847
6394.00,0.8938
6393.00,0.9033
6392.00,0.9129
6391.00,0.9225
6390.00,0.9321
6389.00,0.9414
6388.00,0.9506
6387.00,0.9594
6386.00,0.9683
6385.00,0.9775
6384.00,0.9869
6383.00,0.9964
6382.00,1.0060
6381.00,1.0155
6380.00,1.0248
6379.00,1.0337
6378.00,1.0424
6377.00,1.0511
6376.00,1.0597
6375.00,1.0681
6374.00,1.0764
6373.00,1.0846
6372.00,1.0926
6371.00,1.1001
6370.00,1.1070
6369.00,1.1134
6368.00,1.1196
6367.00,1.1254
6366.00,1.1311
6365.00,1.1368
6364.00,1.1425
6363.00,1.1482
6362.00,1.1539
6361.00,1.1593
6360.00,1.1641
6359.00,1.1682
6358.00,1.1717
6357.00,1.1749
6356.00,1.1779
6355.00,1.1807
6354.00,1.1836
6353.00,1.1868
6352.00,1.1897
6351.00,1.1918
6350.00,1.1931
6349.00,1.1937
6348.00,1.1939
6347.00,1.1938
6346.00,1.1933
6345.00,1.1925
6344.00,1.1914
6343.00,1.1901
6342.00,1.1888
6341.00,1.1872
6340.00,1.1852
6339.00,1.1830
6338.00,1.1807
6337.00,1.1786
6336.00,1.1762
6335.00,1.1731
6334.00,1.1694
6333.00,1.1654
6332.00,1.1614
6331.00,1.1573
6330.00,1.1531
6329.00,1.1486
6328.00,1.1439
6327.00,1.1386
6326.00,1.1323
6325.00,1.1252
6324.00,1.1173
6323.00,1.1090
6322.00,1.1006
6321.00,1.0920
6320.00,1.0832
6319.00,1.0739
6318.00,1.0642
6317.00,1.0540
6316.00,1.0434
6315.00,1.0326
6314.00,1.0218
6313.00,1.0112
6312.00,1.0006
6311.00,0.9897
6310.00,0.9786
6309.00,0.9672
6308.00,0.9558
6307.00,0.9444
6306.00,0.9332
6305.00,0.9223
6304.00,0.9116
6303.00,0.9011
6302.00,0.8907
6301.00,0.8805
6300.00,0.8702
6299.00,0.8598
6298.00,0.8497
6297.00,0.8398
6296.00,0.8303
6295.00,0.8210
6294.00,0.8122
6293.00,0.8040
6292.00,0.7962
6291.00,0.7885
6290.00,0.7810
6289.00,0.7739
6288.00,0.7674
6287.00,0.7613
6286.00,0.7557
6285.00,0.7507
6284.00,0.7463
6283.00,0.7425
6282.00,0.7391
6281.00,0.7362
6280.00,0.7337
6279.00,0.7317
6278.00,0.7304
6277.00,0.7298
6276.00,0.7298
6275.00,0.7305
6274.00,0.7319
6273.00,0.7338
6272.00,0.7362
6271.00,0.7390
6270.00,0.7423
6269.00,0.7461
6268.00,0.7504
6267.00,0.7553
6266.00,0.7608
6265.00,0.7668
6264.00,0.7731
6263.00,0.7797
6262.00,0.7865
6261.00,0.7937
6260.00,0.8014
6259.00,0.8093
6258.00,0.8176
6257.00,0.8263
6256.00,0.8352
6255.00,0.8444
6254.00,0.8535
6253.00,0.8627
6252.00,0.8721
6251.00,0.8815
6250.00,0.8910
6249.00,0.9006
6248.00,0.9104
6247.00,0.9203
6246.00,0.9305
6245.00,0.9407
6244.00,0.9510
6243.00,0.9610
6242.00,0.9710
6241.00,0.9809
6240.00,0.9908
6239.00,1.0005
6238.00,1.0100
6237.00,1.0193
6236.00,1.0282
6235.00,1.0370
6234.00,1.0457
6233.00,1.0546
6232.00,1.0637
6231.00,1.0729
6230.00,1.0820
6229.00,1.0906
6228.00,1.0987
6227.00,1.1062
6226.00,1.1132
6225.00,1.1199
6224.00,1.1267
6223.00,1.1335
6222.00,1.1404
6221.00,1.1471
6220.00,1.1535
6219.00,1.1596
6218.00,1.1653
6217.00,1.1705
6216.00,1.1750
6215.00,1.1788
6214.00,1.1821
6213.00,1.1854
6212.00,1.1885
6211.00,1.1914
6210.00,1.1942
6209.00,1.1969
6208.00,1.1995
6207.00,1.2018
6206.00,1.2036
6205.00,1.2050
6204.00,1.2059
6203.00,1.2063
6202.00,1.2062
6201.00,1.2054
6200.00,1.2042
6199.00,1.2026
6198.00,1.2007
6197.00,1.1986
6196.00,1.1965
6195.00,1.1940
6194.00,1.1912
6193.00,1.1881
6192.00,1.1846
6191.00,1.1807
6190.00,1.1764
6189.00,1.1716
6188.00,1.1666
6187.00,1.1612
6186.00,1.1553
6185.00,1.1492
6184.00,1.1431
6183.00,1.1368
6182.00,1.1299
6181.00,1.1223
6180.00,1.1144
6179.00,1.1062
6178.00,1.0976
6177.00,1.0887
6176.00,1.0796
