Created as New Dataset,Sample 052 By Administrator Date Wednesday, November 24 2021
cm-1,A
7502.00,0.5690
7501.00,0.5773
7500.00,0.5857
7499.00,0.5943
7498.00,0.6029
7497.00,0.6116
7496.00,0.6206
7495.00,0.6298
7494.00,0.6390
7493.00,0.6478
7492.00,0.6563
7491.00,0.6649
7490.00,0.6742
7489.00,0.6841
7488.00,0.6938
7487.00,0.7027
7486.00,0.7113
7485.00,0.7201
7484.00,0.7291
7483.00,0.7376
7482.00,0.7448
7481.00,0.7510
7480.00,0.7577
7479.00,0.7657
7478.00,0.7748
7477.00,0.7836
7476.00,0.7914
7475.00,0.7984
7474.00,0.8056
7473.00,0.8134
7472.00,0.8208
7471.00,0.8267
7470.00,0.8310
7469.00,0.8351
7468.00,0.8396
7467.00,0.8443
7466.00,0.8487
7465.00,0.8526
7464.00,0.8562
7463.00,0.8602
7462.00,0.8644
7461.00,0.8681
7460.00,0.8707
7459.00,0.8722
7458.00,0.8729
7457.00,0.8736
7456.00,0.8742
7455.00,0.8745
7454.00,0.8745
7453.00,0.8749
7452.00,0.8760
7451.00,0.8772
7450.00,0.8777
7449.00,0.8771
7448.00,0.8757
7447.00,0.8735
7446.00,0.8708
7445.00,0.8676
7444.00,0.8640
7443.00,0.8601
7442.00,0.8559
7441.00,0.8519
7440.00,0.8485
7439.00,0.8450
7438.00,0.8408
7437.00,0.8355
7436.00,0.8294
7435.00,0.8228
7434.00,0.8157
7433.00,0.8081
7432.00,0.8003
7431.00,0.7928
7430.00,0.7861
7429.00,0.7803
7428.00,0.7755
7427.00,0.7715
7426.00,0.7677
7425.00,0.7634
7424.00,0.7580
7423.00,0.7516
7422.00,0.7445
7421.00,0.7370
7420.00,0.7292
7419.00,0.7207
7418.00,0.7117
7417.00,0.7026
7416.00,0.6942
7415.00,0.6865
7414.00,0.6793
7413.00,0.6719
7412.00,0.6645
7411.00,0.6574
7410.00,0.6511
7409.00,0.6455
7408.00,0.6405
7407.00,0.6356
7406.00,0.6310
7405.00,0.6269
7404.00,0.6231
7403.00,0.6196
7402.00,0.6160
7401.00,0.6121
7400.00,0.6079
7399.00,0.6034
7398.00,0.5991
7397.00,0.5951
7396.00,0.5916
7395.00,0.5884
7394.00,0.5856
7393.00,0.5830
7392.00,0.5808
7391.00,0.5790
7390.00,0.5775
7389.00,0.5764
7388.00,0.5754
7387.00,0.5747
7386.00,0.5742
7385.00,0.5744
7384.00,0.5753
7383.00,0.5766
7382.00,0.5781
7381.00,0.5799
7380.00,0.5823
7379.00,0.5853
7378.00,0.5888
7377.00,0.5925
7376.00,0.5962
7375.00,0.6001
7374.00,0.6044
7373.00,0.6090
7372.00,0.6136
7371.00,0.6183
7370.00,0.6235
7369.00,0.6295
7368.00,0.6359
7367.00,0.6426
7366.00,0.6495
7365.00,0.6569
7364.00,0.6649
7363.00,0.6732
7362.00,0.6818
7361.00,0.6903
7360.00,0.6988
7359.00,0.7071
7358.00,0.7156
7357.00,0.7242
7356.00,0.7329
7355.00,0.7416
7354.00,0.7505
7353.00,0.7595
7352.00,0.7687
7351.00,0.7780
7350.00,0.7871
7349.00,0.7961
7348.00,0.8046
7347.00,0.8129
7346.00,0.8213
7345.00,0.8299
7344.00,0.8385
7343.00,0.8471
7342.00,0.8559
7341.00,0.8652
7340.00,0.8745
7339.00,0.8833
7338.00,0.8913
7337.00,0.8987
7336.00,0.9056
7335.00,0.9122
7334.00,0.9188
7333.00,0.9258
7332.00,0.9333
7331.00,0.9407
7330.00,0.9475
7329.00,0.9542
7328.00,0.9609
7327.00,0.9675
7326.00,0.9733
7325.00,0.9785
7324.00,0.9835
7323.00,0.9889
7322.00,0.9943
7321.00,0.9993
7320.00,1.0038
7319.00,1.0079
7318.00,1.0115
7317.00,1.0146
7316.00,1.0170
7315.00,1.0190
7314.00,1.0205
7313.00,1.0219
7312.00,1.0230
7311.00,1.0236
7310.00,1.0238
7309.00,1.0238
7308.00,1.0241
7307.00,1.0249
7306.00,1.0254
7305.00,1.0249
7304.00,1.0235
7303.00,1.0217
7302.00,1.0203
7301.00,1.0191
7300.00,1.0180
7299.00,1.0164
7298.00,1.0142
7297.00,1.0117
7296.00,1.0090
7295.00,1.0062
7294.00,1.0028
7293.00,0.9984
7292.00,0.9931
7291.00,0.9876
7290.00,0.9821
7289.00,0.9766
7288.00,0.9709
7287.00,0.9650
7286.00,0.9587
7285.00,0.9521
7284.00,0.9452
7283.00,0.9383
7282.00,0.9314
7281.00,0.9243
7280.00,0.9165
7279.00,0.9081
7278.00,0.8995
7277.00,0.8914
7276.00,0.8839
7275.00,0.8766
7274.00,0.8694
7273.00,0.8621
7272.00,0.8547
7271.00,0.8472
7270.00,0.8395
7269.00,0.8313
7268.00,0.8224
7267.00,0.8131
7266.00,0.8039
7265.00,0.7953
7264.00,0.7870
7263.00,0.7790
7262.00,0.7710
7261.00,0.7632
7260.00,0.7558
7259.00,0.7489
7258.00,0.7422
7257.00,0.7358
7256.00,0.7295
7255.00,0.7236
7254.00,0.7182
7253.00,0.7132
7252.00,0.7085
7251.00,0.7039
7250.00,0.6998
7249.00,0.6963
7248.00,0.6935
7247.00,0.6910
7246.00,0.6889
7245.00,0.6872
7244.00,0.6859
7243.00,0.6848
7242.00,0.6838
7241.00,0.6831
7240.00,0.6828
7239.00,0.6831
7238.00,0.6837
7237.00,0.6849
7236.00,0.6868
7235.00,0.6893
7234.00,0.6925
7233.00,0.6965
7232.00,0.7009
7231.00,0.7057
7230.00,0.7105
7229.00,0.7155
7228.00,0.7207
7227.00,0.7264
7226.00,0.7324
7225.00,0.7387
7224.00,0.7450
7223.00,0.7515
7222.00,0.7585
7221.00,0.7660
7220.00,0.7740
7219.00,0.7821
7218.00,0.7900
7217.00,0.7979
7216.00,0.8060
7215.00,0.8143
7214.00,0.8227
7213.00,0.8312
7212.00,0.8395
7211.00,0.8475
7210.00,0.8554
7209.00,0.8634
7208.00,0.8714
7207.00,0.8795
7206.00,0.8876
7205.00,0.8956
7204.00,0.9035
7203.00,0.9114
7202.00,0.9197
7201.00,0.9282
7200.00,0.9369
7199.00,0.9450
7198.00,0.9524
7197.00,0.9596
7196.00,0.9669
7195.00,0.9745
7194.00,0.9818
7193.00,0.9886
7192.00,0.9950
7191.00,1.0013
7190.00,1.0075
7189.00,1.0135
7188.00,1.0191
7187.00,1.0242
7186.00,1.0287
7185.00,1.0330
7184.00,1.0376
7183.00,1.0425
7182.00,1.0475
7181.00,1.0521
7180.00,1.0561
7179.00,1.0597
7178.00,1.0629
7177.00,1.0659
7176.00,1.0687
7175.00,1.0710
7174.00,1.0728
7173.00,1.0744
7172.00,1.0760
7171.00,1.0776
7170.00,1.0787
7169.00,1.0790
7168.00,1.0782
7167.00,1.0768
7166.00,1.0752
7165.00,1.0733
7164.00,1.0710
7163.00,1.0686
7162.00,1.0661
7161.00,1.0636
7160.00,1.0608
7159.00,1.0577
7158.00,1.0544
7157.00,1.0509
7156.00,1.0470
7155.00,1.0428
7154.00,1.0384
7153.00,1.0339
7152.00,1.0291
7151.00,1.0239
7150.00,1.0184
7149.00,1.0127
7148.00,1.0070
7147.00,1.0013
7146.00,0.9953
7145.00,0.9889
7144.00,0.9816
7143.00,0.9741
7142.00,0.9666
7141.00,0.9594
7140.00,0.9522
7139.00,0.9448
7138.00,0.9375
7137.00,0.9303
7136.00,0.9230
7135.00,0.9153
7134.00,0.9075
7133.00,0.8994
7132.00,0.8910
7131.00,0.8821
7130.00,0.8731
7129.00,0.8643
7128.00,0.8559
7127.00,0.8476
7126.00,0.8392
7125.00,0.8309
7124.00,0.8231
7123.00,0.8157
7122.00,0.8086
7121.00,0.8015
7120.00,0.7942
7119.00,0.7871
7118.00,0.7802
7117.00,0.7735
7116.00,0.7668
7115.00,0.7601
7114.00,0.7536
7113.00,0.7477
7112.00,0.7423
7111.00,0.7376
7110.00,0.7334
7109.00,0.7296
7108.00,0.7260
7107.00,0.7227
7106.00,0.7199
7105.00,0.7176
7104.00,0.7155
7103.00,0.7135
7102.00,0.7119
7101.00,0.7108
7100.00,0.7104
7099.00,0.7104
7098.00,0.7109
7097.00,0.7119
7096.00,0.7133
7095.00,0.7151
7094.00,0.7172
7093.00,0.7198
7092.00,0.7229
7091.00,0.7265
7090.00,0.7307
7089.00,0.7353
7088.00,0.7403
7087.00,0.7455
7086.00,0.7512
7085.00,0.7571
7084.00,0.7632
7083.00,0.7695
7082.00,0.7761
7081.00,0.7830
7080.00,0.7901
7079.00,0.7973
7078.00,0.8047
7077.00,0.8123
7076.00,0.8200
7075.00,0.8278
7074.00,0.8359
7073.00,0.8444
7072.00,0.8532
7071.00,0.8622
7070.00,0.8711
7069.00,0.8802
7068.00,0.8892
7067.00,0.8980
7066.00,0.9066
7065.00,0.9150
7064.00,0.9234
7063.00,0.9318
7062.00,0.9404
7061.00,0.9489
7060.00,0.9570
7059.00,0.9648
7058.00,0.9728
7057.00,0.9810
7056.00,0.9894
7055.00,0.9974
7054.00,1.0051
7053.00,1.0125
7052.00,1.0195
7051.00,1.0262
7050.00,1.0327
7049.00,1.0394
7048.00,1.0464
7047.00,1.0536
7046.00,1.0610
7045.00,1.0686
7044.00,1.0759
7043.00,1.0821
7042.00,1.0869
7041.00,1.0910
7040.00,1.0950
7039.00,1.0991
7038.00,1.1033
7037.00,1.1076
7036.00,1.1119
7035.00,1.1163
7034.00,1.1204
7033.00,1.1239
7032.00,1.1265
7031.00,1.1281
7030.00,1.1291
7029.00,1.1302
7028.00,1.1317
7027.00,1.1332
7026.00,1.1345
7025.00,1.1355
7024.00,1.1363
7023.00,1.1367
7022.00,1.1363
7021.00,1.1351
7020.00,1.1331
7019.00,1.1310
7018.00,1.1291
7017.00,1.1273
7016.00,1.1254
7015.00,1.1230
7014.00,1.1200
7013.00,1.1163
7012.00,1.1120
7011.00,1.1073
7010.00,1.1026
7009.00,1.0981
7008.00,1.0937
7007.00,1.0888
7006.00,1.0833
7005.00,1.0774
7004.00,1.0714
7003.00,1.0652
7002.00,1.0588
7001.00,1.0520
7000.00,1.0448
6999.00,1.0371
6998.00,1.0293
6997.00,1.0215
6996.00,1.0137
6995.00,1.0057
6994.00,0.9974
6993.00,0.9890
6992.00,0.9806
6991.00,0.9720
6990.00,0.9629
6989.00,0.9536
6988.00,0.9441
6987.00,0.9347
6986.00,0.9256
6985.00,0.9167
6984.00,0.9079
6983.00,0.8989
6982.00,0.8895
6981.00,0.8800
6980.00,0.8706
6979.00,0.8617
6978.00,0.8532
6977.00,0.8453
6976.00,0.8377
6975.00,0.8304
6974.00,0.8234
6973.00,0.8166
6972.00,0.8098
6971.00,0.8030
6970.00,0.7963
6969.00,0.7901
6968.00,0.7844
6967.00,0.7791
6966.00,0.7743
6965.00,0.7701
6964.00,0.7663
6963.00,0.7630
6962.00,0.7600
6961.00,0.7574
6960.00,0.7553
6959.00,0.7537
6958.00,0.7527
6957.00,0.7523
6956.00,0.7524
6955.00,0.7530
6954.00,0.7541
6953.00,0.7558
6952.00,0.7581
6951.00,0.7608
6950.00,0.7638
6949.00,0.7671
6948.00,0.7709
6947.00,0.7752
6946.00,0.7800
6945.00,0.7852
6944.00,0.7907
6943.00,0.7966
6942.00,0.8027
6941.00,0.8091
6940.00,0.8156
6939.00,0.8222
6938.00,0.8292
6937.00,0.8366
6936.00,0.8444
6935.00,0.8524
6934.00,0.8605
6933.00,0.8687
6932.00,0.8768
6931.00,0.8849
6930.00,0.8932
6929.00,0.9017
6928.00,0.9103
6927.00,0.9189
6926.00,0.9277
6925.00,0.9364
6924.00,0.9448
6923.00,0.9526
6922.00,0.9604
6921.00,0.9687
6920.00,0.9775
6919.00,0.9863
6918.00,0.9950
6917.00,1.0036
6916.00,1.0119
6915.00,1.0195
6914.00,1.0267
6913.00,1.0337
6912.00,1.0408
6911.00,1.0478
6910.00,1.0547
6909.00,1.0617
6908.00,1.0690
6907.00,1.0760
6906.00,1.0826
6905.00,1.0887
6904.00,1.0946
6903.00,1.1003
6902.00,1.1057
6901.00,1.1106
6900.00,1.1150
6899.00,1.1193
6898.00,1.1234
6897.00,1.1271
6896.00,1.1307
6895.00,1.1344
6894.00,1.1381
6893.00,1.1416
6892.00,1.1445
6891.00,1.1469
6890.00,1.1489
6889.00,1.1504
6888.00,1.1514
6887.00,1.1520
6886.00,1.1523
6885.00,1.1524
6884.00,1.1522
6883.00,1.1518
6882.00,1.1512
6881.00,1.1502
6880.00,1.1486
6879.00,1.1465
6878.00,1.1440
6877.00,1.1412
6876.00,1.1380
6875.00,1.1343
6874.00,1.1303
6873.00,1.1260
6872.00,1.1212
6871.00,1.1160
6870.00,1.1109
6869.00,1.1061
6868.00,1.1008
6867.00,1.0947
6866.00,1.0881
6865.00,1.0817
6864.00,1.0753
6863.00,1.0682
6862.00,1.0604
6861.00,1.0525
6860.00,1.0450
6859.00,1.0376
6858.00,1.0299
6857.00,1.0219
6856.00,1.0136
6855.00,1.0051
6854.00,0.9965
6853.00,0.9876
6852.00,0.9784
6851.00,0.9688
6850.00,0.9591
6849.00,0.9497
6848.00,0.9406
6847.00,0.9314
6846.00,0.9220
6845.00,0.9126
6844.00,0.9034
6843.00,0.8942
6842.00,0.8850
6841.00,0.8759
6840.00,0.8669
6839.00,0.8583
6838.00,0.8501
6837.00,0.8423
6836.00,0.8347
6835.00,0.8272
6834.00,0.8200
6833.00,0.8130
6832.00,0.8062
6831.00,0.7996
6830.00,0.7931
6829.00,0.7871
6828.00,0.7816
6827.00,0.7764
6826.00,0.7714
6825.00,0.7669
6824.00,0.7628
6823.00,0.7591
6822.00,0.7558
6821.00,0.7530
6820.00,0.7507
6819.00,0.7489
6818.00,0.7476
6817.00,0.7467
6816.00,0.7463
6815.00,0.7463
6814.00,0.7467
6813.00,0.7477
6812.00,0.7491
6811.00,0.7508
6810.00,0.7529
6809.00,0.7555
6808.00,0.7588
6807.00,0.7627
6806.00,0.7672
6805.00,0.7722
6804.00,0.7775
6803.00,0.7832
6802.00,0.7892
6801.00,0.7952
6800.00,0.8013
6799.00,0.8076
6798.00,0.8142
6797.00,0.8214
6796.00,0.8290
6795.00,0.8367
6794.00,0.8447
6793.00,0.8529
6792.00,0.8614
6791.00,0.8700
6790.00,0.8787
6789.00,0.8874
6788.00,0.8961
6787.00,0.9048
6786.00,0.9136
6785.00,0.9224
6784.00,0.9312
6783.00,0.9401
6782.00,0.9491
6781.00,0.9584
6780.00,0.9677
6779.00,0.9769
6778.00,0.9860
6777.00,0.9952
6776.00,1.0045
6775.00,1.0136
6774.00,1.0223
6773.00,1.0306
6772.00,1.0385
6771.00,1.0462
6770.00,1.0539
6769.00,1.0619
6768.00,1.0700
6767.00,1.0779
6766.00,1.0856
6765.00,1.0929
6764.00,1.1000
6763.00,1.1066
6762.00,1.1127
6761.00,1.1185
6760.00,1.1242
6759.00,1.1300
6758.00,1.1359
6757.00,1.1415
6756.00,1.1465
6755.00,1.1508
6754.00,1.1546
6753.00,1.1585
6752.00,1.1627
6751.00,1.1669
6750.00,1.1705
6749.00,1.1731
6748.00,1.1748
6747.00,1.1762
6746.00,1.1778
6745.00,1.1793
6744.00,1.1803
6743.00,1.1810
6742.00,1.1818
6741.00,1.1831
6740.00,1.1842
6739.00,1.1845
6738.00,1.1838
6737.00,1.1825
6736.00,1.1811
6735.00,1.1796
6734.00,1.1777
6733.00,1.1752
6732.00,1.1723
6731.00,1.1691
6730.00,1.1655
6729.00,1.1615
6728.00,1.1569
6727.00,1.1520
6726.00,1.1469
6725.00,1.1417
6724.00,1.1362
6723.00,1.1305
6722.00,1.1249
6721.00,1.1191
6720.00,1.1130
6719.00,1.1062
6718.00,1.0989
6717.00,1.0914
6716.00,1.0837
6715.00,1.0760
6714.00,1.0681
6713.00,1.0600
6712.00,1.0516
6711.00,1.0428
6710.00,1.0336
6709.00,1.0243
6708.00,1.0149
6707.00,1.0051
6706.00,0.9952
6705.00,0.9854
6704.00,0.9757
6703.00,0.9659
6702.00,0.9560
6701.00,0.9460
6700.00,0.9362
6699.00,0.9265
6698.00,0.9170
6697.00,0.9077
6696.00,0.8985
6695.00,0.8893
6694.00,0.8802
6693.00,0.8714
6692.00,0.8627
6691.00,0.8542
6690.00,0.8460
6689.00,0.8382
6688.00,0.8309
6687.00,0.8238
6686.00,0.8170
6685.00,0.8106
6684.00,0.8047
6683.00,0.7990
6682.00,0.7937
6681.00,0.7888
6680.00,0.7844
6679.00,0.7804
6678.00,0.7769
6677.00,0.7740
6676.00,0.7717
6675.00,0.7700
6674.00,0.7690
6673.00,0.7687
6672.00,0.7689
6671.00,0.7696
6670.00,0.7709
6669.00,0.7726
6668.00,0.7747
6667.00,0.7770
6666.00,0.7799
6665.00,0.7833
6664.00,0.7875
6663.00,0.7921
6662.00,0.7971
6661.00,0.8025
6660.00,0.8083
6659.00,0.8146
6658.00,0.8212
6657.00,0.8280
6656.00,0.8349
6655.00,0.8419
6654.00,0.8493
6653.00,0.8569
6652.00,0.8649
6651.00,0.8730
6650.00,0.8814
6649.00,0.8900
6648.00,0.8987
6647.00,0.9074
6646.00,0.9158
6645.00,0.9243
6644.00,0.9330
6643.00,0.9420
6642.00,0.9514
6641.00,0.9610
6640.00,0.9707
6639.00,0.9802
6638.00,0.9894
6637.00,0.9981
6636.00,1.0067
6635.00,1.0151
6634.00,1.0234
6633.00,1.0318
6632.00,1.0404
6631.00,1.0489
6630.00,1.0571
6629.00,1.0649
6628.00,1.0723
6627.00,1.0796
6626.00,1.0869
6625.00,1.0939
6624.00,1.1007
6623.00,1.1075
6622.00,1.1143
6621.00,1.1209
6620.00,1.1271
6619.00,1.1329
6618.00,1.1384
6617.00,1.1434
6616.00,1.1480
6615.00,1.1522
6614.00,1.1562
6613.00,1.1600
6612.00,1.1637
6611.00,1.1672
6610.00,1.1703
6609.00,1.1731
6608.00,1.1755
6607.00,1.1775
6606.00,1.1791
6605.00,1.1802
6604.00,1.1809
6603.00,1.1815
6602.00,1.1823
6601.00,1.1833
6600.00,1.1838
6599.00,1.1834
6598.00,1.1823
6597.00,1.1808
6596.00,1.1790
6595.00,1.1770
6594.00,1.1746
6593.00,1.1717
6592.00,1.1685
6591.00,1.1648
6590.00,1.1606
6589.00,1.1559
6588.00,1.1509
6587.00,1.1458
6586.00,1.1408
6585.00,1.1358
6584.00,1.1306
6583.00,1.1251
6582.00,1.1190
6581.00,1.1122
6580.00,1.1046
6579.00,1.0966
6578.00,1.0885
6577.00,1.0806
6576.00,1.0724
6575.00,1.0640
6574.00,1.0555
6573.00,1.0470
6572.00,1.0385
6571.00,1.0300
6570.00,1.0212
6569.00,1.0124
6568.00,1.0032
6567.00,0.9937
6566.00,0.9838
6565.00,0.9737
6564.00,0.9635
6563.00,0.9532
6562.00,0.9431
6561.00,0.9331
6560.00,0.9233
6559.00,0.9137
6558.00,0.9042
6557.00,0.8947
6556.00,0.8854
6555.00,0.8762
6554.00,0.8672
6553.00,0.8584
6552.00,0.8498
6551.00,0.8414
6550.00,0.8334
6549.00,0.8256
6548.00,0.8180
6547.00,0.8108
6546.00,0.8039
6545.00,0.7975
6544.00,0.7913
6543.00,0.7854
6542.00,0.7799
6541.00,0.7748
6540.00,0.7701
6539.00,0.7657
6538.00,0.7619
6537.00,0.7587
6536.00,0.7560
6535.00,0.7539
6534.00,0.7522
6533.00,0.7511
6532.00,0.7505
6531.00,0.7504
6530.00,0.7507
6529.00,0.7516
6528.00,0.7530
6527.00,0.7549
6526.00,0.7574
6525.00,0.7604
6524.00,0.7640
6523.00,0.7678
6522.00,0.7722
6521.00,0.7772
6520.00,0.7826
6519.00,0.7882
6518.00,0.7941
6517.00,0.8003
6516.00,0.8069
6515.00,0.8138
6514.00,0.8212
6513.00,0.8289
6512.00,0.8370
6511.00,0.8452
6510.00,0.8535
6509.00,0.8622
6508.00,0.8711
6507.00,0.8801
6506.00,0.8892
6505.00,0.8985
6504.00,0.9081
6503.00,0.9176
6502.00,0.9272
6501.00,0.9368
6500.00,0.9464
6499.00,0.9558
6498.00,0.9652
6497.00,0.9746
6496.00,0.9839
6495.00,0.9934
6494.00,1.0029
6493.00,1.0125
6492.00,1.0219
6491.00,1.0312
6490.00,1.0403
6489.00,1.0493
6488.00,1.0580
6487.00,1.0664
6486.00,1.0745
6485.00,1.0824
6484.00,1.0901
6483.00,1.0976
6482.00,1.1049
6481.00,1.1124
6480.00,1.1198
6479.00,1.1270
6478.00,1.1337
6477.00,1.1400
6476.00,1.1461
6475.00,1.1517
6474.00,1.1569
6473.00,1.1619
6472.00,1.1669
6471.00,1.1717
6470.00,1.1761
6469.00,1.1801
6468.00,1.1836
6467.00,1.1867
6466.00,1.1894
6465.00,1.1920
6464.00,1.1947
6463.00,1.1973
6462.00,1.1997
6461.00,1.2017
6460.00,1.2033
6459.00,1.2043
6458.00,1.2047
6457.00,1.2045
6456.00,1.2041
6455.00,1.2033
6454.00,1.2022
6453.00,1.2009
6452.00,1.1995
6451.00,1.1977
6450.00,1.1953
6449.00,1.1925
6448.00,1.1892
6447.00,1.1859
6446.00,1.1822
6445.00,1.1781
6444.00,1.1735
6443.00,1.1685
6442.00,1.1632
6441.00,1.1575
6440.00,1.1513
6439.00,1.1449
6438.00,1.1384
6437.00,1.1319
6436.00,1.1251
6435.00,1.1178
6434.00,1.1100
6433.00,1.1019
6432.00,1.0937
6431.00,1.0852
6430.00,1.0763
6429.00,1.0673
6428.00,1.0582
6427.00,1.0490
6426.00,1.0393
6425.00,1.0292
6424.00,1.0187
6423.00,1.0081
6422.00,0.9976
6421.00,0.9873
6420.00,0.9769
6419.00,0.9665
6418.00,0.9562
6417.00,0.9458
6416.00,0.9353
6415.00,0.9247
6414.00,0.9141
6413.00,0.9036
6412.00,0.8934
6411.00,0.8833
6410.00,0.8735
6409.00,0.8639
6408.00,0.8545
6407.00,0.8454
6406.00,0.8365
6405.00,0.8281
6404.00,0.8200
6403.00,0.8123
6402.00,0.8050
6401.00,0.7981
6400.00,0.7915
6399.00,0.7854
6398.00,0.7796
6397.00,0.7745
6396.00,0.7699
6395.00,0.7658
6394.00,0.7624
6393.00,0.7595
6392.00,0.7573
6391.00,0.7558
6390.00,0.7549
6389.00,0.7546
6388.00,0.7548
6387.00,0.7554
6386.00,0.7565
6385.00,0.7582
6384.00,0.7604
6383.00,0.7631
6382.00,0.7663
6381.00,0.7703
6380.00,0.7748
6379.00,0.7798
6378.00,0.7852
6377.00,0.7909
6376.00,0.7971
6375.00,0.8036
6374.00,0.8106
6373.00,0.8178
6372.00,0.8254
6371.00,0.8332
6370.00,0.8413
6369.00,0.8497
6368.00,0.8585
6367.00,0.8675
6366.00,0.8766
6365.00,0.8857
6364.00,0.8949
6363.00,0.9042
6362.00,0.9136
6361.00,0.9230
6360.00,0.9324
6359.00,0.9417
6358.00,0.9511
6357.00,0.9605
6356.00,0.9699
6355.00,0.9795
6354.00,0.9891
6353.00,0.9989
6352.00,1.0086
6351.00,1.0179
6350.00,1.0269
6349.00,1.0356
6348.00,1.0441
6347.00,1.0526
6346.00,1.0611
6345.00,1.0695
6344.00,1.0777
6343.00,1.0856
6342.00,1.0936
6341.00,1.1015
6340.00,1.1092
6339.00,1.1163
6338.00,1.1229
6337.00,1.1293
6336.00,1.1354
6335.00,1.1413
6334.00,1.1471
6333.00,1.1530
6332.00,1.1589
6331.00,1.1643
6330.00,1.1693
6329.00,1.1738
6328.00,1.1778
6327.00,1.1813
6326.00,1.1847
6325.00,1.1880
6324.00,1.1911
6323.00,1.1936
6322.00,1.1955
6321.00,1.1969
6320.00,1.1979
6319.00,1.1983
6318.00,1.1983
6317.00,1.1980
6316.00,1.1974
6315.00,1.1965
6314.00,1.1952
6313.00,1.1937
6312.00,1.1918
6311.00,1.1894
6310.00,1.1865
6309.00,1.1832
6308.00,1.1797
6307.00,1.1759
6306.00,1.1720
6305.00,1.1678
6304.00,1.1634
6303.00,1.1586
6302.00,1.1533
6301.00,1.1473
6300.00,1.1409
6299.00,1.1341
6298.00,1.1271
6297.00,1.1203
6296.00,1.1134
6295.00,1.1063
6294.00,1.0988
6293.00,1.0908
6292.00,1.0824
6291.00,1.0734
6290.00,1.0641
6289.00,1.0547
6288.00,1.0453
6287.00,1.0359
6286.00,1.0263
6285.00,1.0163
6284.00,1.0062
6283.00,0.9959
6282.00,0.9855
6281.00,0.9750
6280.00,0.9642
6279.00,0.9534
6278.00,0.9426
6277.00,0.9320
6276.00,0.9215
6275.00,0.9111
6274.00,0.9009
6273.00,0.8908
6272.00,0.8808
6271.00,0.8708
6270.00,0.8607
6269.00,0.8508
6268.00,0.8411
6267.00,0.8318
6266.00,0.8227
6265.00,0.8139
6264.00,0.8054
6263.00,0.7973
6262.00,0.7895
6261.00,0.7822
6260.00,0.7753
6259.00,0.7687
6258.00,0.7626
6257.00,0.7569
6256.00,0.7517
6255.00,0.7469
6254.00,0.7426
6253.00,0.7389
6252.00,0.7356
6251.00,0.7329
6250.00,0.7308
6249.00,0.7294
6248.00,0.7286
6247.00,0.7285
6246.00,0.7290
6245.00,0.7301
6244.00,0.7316
6243.00,0.7337
6242.00,0.7363
6241.00,0.7395
6240.00,0.7432
6239.00,0.7475
6238.00,0.7522
6237.00,0.7576
6236.00,0.7634
6235.00,0.7696
6234.00,0.7764
6233.00,0.7836
6232.00,0.7911
6231.00,0.7986
6230.00,0.8065
6229.00,0.8146
6228.00,0.8231
6227.00,0.8318
6226.00,0.8408
6225.00,0.8501
6224.00,0.8598
6223.00,0.8697
6222.00,0.8796
6221.00,0.8894
6220.00,0.8992
6219.00,0.9091
6218.00,0.9190
6217.00,0.9289
6216.00,0.9387
6215.00,0.9486
6214.00,0.9588
6213.00,0.9692
6212.00,0.9795
6211.00,0.9894
6210.00,0.9992
6209.00,1.0091
6208.00,1.0189
6207.00,1.0285
6206.00,1.0377
6205.00,1.0467
6204.00,1.0556
6203.00,1.0644
6202.00,1.0731
6201.00,1.0815
6200.00,1.0898
6199.00,1.0979
6198.00,1.1058
6197.00,1.1132
6196.00,1.1202
6195.00,1.1268
6194.00,1.1333
6193.00,1.1398
6192.00,1.1462
6191.00,1.1524
6190.00,1.1581
6189.00,1.1633
6188.00,1.1682
6187.00,1.1727
6186.00,1.1771
6185.00,1.1812
6184.00,1.1848
6183.00,1.1881
6182.00,1.1912
6181.00,1.1940
6180.00,1.1965
6179.00,1.1984
6178.00,1.1999
6177.00,1.2011
6176.00,1.2021
