Created as New Dataset,Sample 170 By Administrator Date Friday, November 26 2021
cm-1,A
7000.00,1.1440
6999.00,1.1415
6998.00,1.1389
6997.00,1.1363
6996.00,1.1335
6995.00,1.1307
6994.00,1.1280
6993.00,1.1254
6992.00,1.1228
6991.00,1.1200
6990.00,1.1171
6989.00,1.1141
6988.00,1.1111
6987.00,1.1079
6986.00,1.1045
6985.00,1.1010
6984.00,1.0974
6983.00,1.0940
6982.00,1.0907
6981.00,1.0874
6980.00,1.0838
6979.00,1.0801
6978.00,1.0766
6977.00,1.0732
6976.00,1.0697
6975.00,1.0661
6974.00,1.0624
6973.00,1.0590
6972.00,1.0558
6971.00,1.0526
6970.00,1.0489
6969.00,1.0447
6968.00,1.0402
6967.00,1.0357
6966.00,1.0316
6965.00,1.0276
6964.00,1.0236
6963.00,1.0196
6962.00,1.0156
6961.00,1.0114
6960.00,1.0069
6959.00,1.0020
6958.00,0.9968
6957.00,0.9917
6956.00,0.9866
6955.00,0.9817
6954.00,0.9772
6953.00,0.9730
6952.00,0.9687
6951.00,0.9641
6950.00,0.9591
6949.00,0.9542
6948.00,0.9495
6947.00,0.9449
6946.00,0.9403
6945.00,0.9356
6944.00,0.9310
6943.00,0.9264
6942.00,0.9218
6941.00,0.9171
6940.00,0.9123
6939.00,0.9072
6938.00,0.9022
6937.00,0.8973
6936.00,0.8924
6935.00,0.8876
6934.00,0.8826
6933.00,0.8776
6932.00,0.8725
6931.00,0.8676
6930.00,0.8628
6929.00,0.8580
6928.00,0.8532
6927.00,0.8484
6926.00,0.8437
6925.00,0.8392
6924.00,0.8346
6923.00,0.8298
6922.00,0.8250
6921.00,0.8204
6920.00,0.8160
6919.00,0.8116
6918.00,0.8071
6917.00,0.8027
6916.00,0.7984
6915.00,0.7942
6914.00,0.7899
6913.00,0.7857
6912.00,0.7816
6911.00,0.7775
6910.00,0.7735
6909.00,0.7696
6908.00,0.7659
6907.00,0.7623
6906.00,0.7588
6905.00,0.7554
6904.00,0.7521
6903.00,0.7488
6902.00,0.7455
6901.00,0.7423
6900.00,0.7392
6899.00,0.7362
6898.00,0.7332
6897.00,0.7306
6896.00,0.7281
6895.00,0.7257
6894.00,0.7234
6893.00,0.7212
6892.00,0.7192
6891.00,0.7171
6890.00,0.7149
6889.00,0.7128
6888.00,0.7110
6887.00,0.7092
6886.00,0.7076
6885.00,0.7061
6884.00,0.7049
6883.00,0.7039
6882.00,0.7030
6881.00,0.7022
6880.00,0.7014
6879.00,0.7007
6878.00,0.7002
6877.00,0.6999
6876.00,0.6997
6875.00,0.6996
6874.00,0.6998
6873.00,0.7002
6872.00,0.7007
6871.00,0.7013
6870.00,0.7020
6869.00,0.7026
6868.00,0.7032
6867.00,0.7039
6866.00,0.7049
6865.00,0.7061
6864.00,0.7073
6863.00,0.7087
6862.00,0.7103
6861.00,0.7121
6860.00,0.7139
6859.00,0.7156
6858.00,0.7173
6857.00,0.7192
6856.00,0.7214
6855.00,0.7239
6854.00,0.7265
6853.00,0.7292
6852.00,0.7319
6851.00,0.7346
6850.00,0.7375
6849.00,0.7405
6848.00,0.7436
6847.00,0.7466
6846.00,0.7498
6845.00,0.7531
6844.00,0.7563
6843.00,0.7596
6842.00,0.7630
6841.00,0.7666
6840.00,0.7703
6839.00,0.7740
6838.00,0.7778
6837.00,0.7818
6836.00,0.7859
6835.00,0.7900
6834.00,0.7941
6833.00,0.7983
6832.00,0.8027
6831.00,0.8071
6830.00,0.8115
6829.00,0.8159
6828.00,0.8202
6827.00,0.8243
6826.00,0.8285
6825.00,0.8328
6824.00,0.8372
6823.00,0.8417
6822.00,0.8464
6821.00,0.8513
6820.00,0.8562
6819.00,0.8612
6818.00,0.8661
6817.00,0.8709
6816.00,0.8755
6815.00,0.8800
6814.00,0.8846
6813.00,0.8893
6812.00,0.8940
6811.00,0.8988
6810.00,0.9037
6809.00,0.9087
6808.00,0.9137
6807.00,0.9187
6806.00,0.9235
6805.00,0.9283
6804.00,0.9329
6803.00,0.9375
6802.00,0.9420
6801.00,0.9466
6800.00,0.9512
6799.00,0.9557
6798.00,0.9602
6797.00,0.9648
6796.00,0.9693
6795.00,0.9737
6794.00,0.9781
6793.00,0.9828
6792.00,0.9875
6791.00,0.9922
6790.00,0.9968
6789.00,1.0014
6788.00,1.0060
6787.00,1.0103
6786.00,1.0146
6785.00,1.0190
6784.00,1.0235
6783.00,1.0280
6782.00,1.0325
6781.00,1.0367
6780.00,1.0408
6779.00,1.0448
6778.00,1.0489
6777.00,1.0533
6776.00,1.0579
6775.00,1.0624
6774.00,1.0665
6773.00,1.0704
6772.00,1.0744
6771.00,1.0785
6770.00,1.0825
6769.00,1.0864
6768.00,1.0903
6767.00,1.0941
6766.00,1.0979
6765.00,1.1014
6764.00,1.1045
6763.00,1.1075
6762.00,1.1108
6761.00,1.1145
6760.00,1.1185
6759.00,1.1226
6758.00,1.1266
6757.00,1.1303
6756.00,1.1333
6755.00,1.1360
6754.00,1.1385
6753.00,1.1413
6752.00,1.1444
6751.00,1.1478
6750.00,1.1513
6749.00,1.1550
6748.00,1.1584
6747.00,1.1614
6746.00,1.1641
6745.00,1.1667
6744.00,1.1692
6743.00,1.1718
6742.00,1.1745
6741.00,1.1773
6740.00,1.1802
6739.00,1.1828
6738.00,1.1848
6737.00,1.1864
6736.00,1.1880
6735.00,1.1900
6734.00,1.1923
6733.00,1.1949
6732.00,1.1972
6731.00,1.1994
6730.00,1.2017
6729.00,1.2040
6728.00,1.2063
6727.00,1.2082
6726.00,1.2099
6725.00,1.2116
6724.00,1.2136
6723.00,1.2155
6722.00,1.2172
6721.00,1.2184
6720.00,1.2194
6719.00,1.2204
6718.00,1.2215
6717.00,1.2227
6716.00,1.2241
6715.00,1.2255
6714.00,1.2270
6713.00,1.2286
6712.00,1.2303
6711.00,1.2316
6710.00,1.2324
6709.00,1.2327
6708.00,1.2328
6707.00,1.2332
6706.00,1.2336
6705.00,1.2341
6704.00,1.2348
6703.00,1.2359
6702.00,1.2371
6701.00,1.2382
6700.00,1.2386
6699.00,1.2386
6698.00,1.2385
6697.00,1.2386
6696.00,1.2390
6695.00,1.2393
6694.00,1.2398
6693.00,1.2404
6692.00,1.2408
6691.00,1.2409
6690.00,1.2407
6689.00,1.2402
6688.00,1.2395
6687.00,1.2386
6686.00,1.2378
6685.00,1.2373
6684.00,1.2371
6683.00,1.2366
6682.00,1.2361
6681.00,1.2357
6680.00,1.2355
6679.00,1.2350
6678.00,1.2338
6677.00,1.2324
6676.00,1.2312
6675.00,1.2304
6674.00,1.2296
6673.00,1.2285
6672.00,1.2274
6671.00,1.2262
6670.00,1.2252
6669.00,1.2241
6668.00,1.2229
6667.00,1.2216
6666.00,1.2200
6665.00,1.2186
6664.00,1.2172
6663.00,1.2158
6662.00,1.2142
6661.00,1.2122
6660.00,1.2102
6659.00,1.2084
6658.00,1.2066
6657.00,1.2047
6656.00,1.2025
6655.00,1.2001
6654.00,1.1976
6653.00,1.1952
6652.00,1.1929
6651.00,1.1910
6650.00,1.1893
6649.00,1.1875
6648.00,1.1853
6647.00,1.1828
6646.00,1.1803
6645.00,1.1778
6644.00,1.1750
6643.00,1.1721
6642.00,1.1692
6641.00,1.1663
6640.00,1.1635
6639.00,1.1605
6638.00,1.1575
6637.00,1.1544
6636.00,1.1514
6635.00,1.1485
6634.00,1.1454
6633.00,1.1424
6632.00,1.1393
6631.00,1.1360
6630.00,1.1326
6629.00,1.1292
6628.00,1.1258
6627.00,1.1223
6626.00,1.1187
6625.00,1.1149
6624.00,1.1108
6623.00,1.1066
6622.00,1.1024
6621.00,1.0984
6620.00,1.0945
6619.00,1.0906
6618.00,1.0867
6617.00,1.0826
6616.00,1.0784
6615.00,1.0741
6614.00,1.0698
6613.00,1.0656
6612.00,1.0613
6611.00,1.0569
6610.00,1.0523
6609.00,1.0477
6608.00,1.0429
6607.00,1.0382
6606.00,1.0335
6605.00,1.0287
6604.00,1.0238
6603.00,1.0190
6602.00,1.0144
6601.00,1.0097
6600.00,1.0048
6599.00,0.9999
6598.00,0.9951
6597.00,0.9905
6596.00,0.9856
6595.00,0.9805
6594.00,0.9752
6593.00,0.9700
6592.00,0.9648
6591.00,0.9595
6590.00,0.9543
6589.00,0.9492
6588.00,0.9442
6587.00,0.9392
6586.00,0.9341
6585.00,0.9289
6584.00,0.9237
6583.00,0.9184
6582.00,0.9131
6581.00,0.9078
6580.00,0.9026
6579.00,0.8973
6578.00,0.8922
6577.00,0.8872
6576.00,0.8822
6575.00,0.8771
6574.00,0.8719
6573.00,0.8667
6572.00,0.8615
6571.00,0.8562
6570.00,0.8509
6569.00,0.8457
6568.00,0.8407
6567.00,0.8359
6566.00,0.8313
6565.00,0.8268
6564.00,0.8223
6563.00,0.8178
6562.00,0.8134
6561.00,0.8089
6560.00,0.8043
6559.00,0.7997
6558.00,0.7952
6557.00,0.7910
6556.00,0.7869
6555.00,0.7829
6554.00,0.7790
6553.00,0.7753
6552.00,0.7717
6551.00,0.7681
6550.00,0.7646
6549.00,0.7612
6548.00,0.7580
6547.00,0.7549
6546.00,0.7519
6545.00,0.7492
6544.00,0.7465
6543.00,0.7439
6542.00,0.7414
6541.00,0.7390
6540.00,0.7368
6539.00,0.7345
6538.00,0.7324
6537.00,0.7306
6536.00,0.7290
6535.00,0.7276
6534.00,0.7263
6533.00,0.7253
6532.00,0.7243
6531.00,0.7235
6530.00,0.7228
6529.00,0.7224
6528.00,0.7220
6527.00,0.7216
6526.00,0.7214
6525.00,0.7215
6524.00,0.7217
6523.00,0.7220
6522.00,0.7224
6521.00,0.7231
6520.00,0.7240
6519.00,0.7250
6518.00,0.7261
6517.00,0.7273
6516.00,0.7288
6515.00,0.7303
6514.00,0.7321
6513.00,0.7341
6512.00,0.7362
6511.00,0.7384
6510.00,0.7407
6509.00,0.7430
6508.00,0.7454
6507.00,0.7479
6506.00,0.7507
6505.00,0.7536
6504.00,0.7567
6503.00,0.7598
6502.00,0.7631
6501.00,0.7664
6500.00,0.7699
6499.00,0.7733
6498.00,0.7768
6497.00,0.7803
6496.00,0.7840
6495.00,0.7878
6494.00,0.7917
6493.00,0.7957
6492.00,0.7998
6491.00,0.8040
6490.00,0.8085
6489.00,0.8130
6488.00,0.8176
6487.00,0.8221
6486.00,0.8266
6485.00,0.8312
6484.00,0.8358
6483.00,0.8403
6482.00,0.8449
6481.00,0.8497
6480.00,0.8546
6479.00,0.8595
6478.00,0.8644
6477.00,0.8694
6476.00,0.8744
6475.00,0.8794
6474.00,0.8844
6473.00,0.8893
6472.00,0.8943
6471.00,0.8993
6470.00,0.9043
6469.00,0.9094
6468.00,0.9146
6467.00,0.9198
6466.00,0.9251
6465.00,0.9305
6464.00,0.9357
6463.00,0.9409
6462.00,0.9460
6461.00,0.9511
6460.00,0.9562
6459.00,0.9613
6458.00,0.9664
6457.00,0.9714
6456.00,0.9765
6455.00,0.9817
6454.00,0.9868
6453.00,0.9919
6452.00,0.9968
6451.00,1.0018
6450.00,1.0070
6449.00,1.0121
6448.00,1.0170
6447.00,1.0217
6446.00,1.0263
6445.00,1.0308
6444.00,1.0354
6443.00,1.0399
6442.00,1.0445
6441.00,1.0494
6440.00,1.0545
6439.00,1.0596
6438.00,1.0646
6437.00,1.0693
6436.00,1.0737
6435.00,1.0779
6434.00,1.0819
6433.00,1.0859
6432.00,1.0899
6431.00,1.0940
6430.00,1.0982
6429.00,1.1025
6428.00,1.1067
6427.00,1.1107
6426.00,1.1145
6425.00,1.1184
6424.00,1.1223
6423.00,1.1261
6422.00,1.1298
6421.00,1.1334
6420.00,1.1373
6419.00,1.1413
6418.00,1.1454
6417.00,1.1492
6416.00,1.1527
6415.00,1.1560
6414.00,1.1592
6413.00,1.1624
6412.00,1.1654
6411.00,1.1683
6410.00,1.1711
6409.00,1.1741
6408.00,1.1770
6407.00,1.1798
6406.00,1.1824
6405.00,1.1850
6404.00,1.1877
6403.00,1.1905
6402.00,1.1933
6401.00,1.1961
6400.00,1.1988
6399.00,1.2013
6398.00,1.2037
6397.00,1.2063
6396.00,1.2089
6395.00,1.2112
6394.00,1.2134
6393.00,1.2155
6392.00,1.2176
6391.00,1.2197
6390.00,1.2218
6389.00,1.2238
6388.00,1.2256
6387.00,1.2274
6386.00,1.2292
6385.00,1.2312
6384.00,1.2331
6383.00,1.2350
6382.00,1.2366
6381.00,1.2381
6380.00,1.2394
6379.00,1.2405
6378.00,1.2415
6377.00,1.2426
6376.00,1.2439
6375.00,1.2453
6374.00,1.2467
6373.00,1.2480
6372.00,1.2491
6371.00,1.2500
6370.00,1.2507
6369.00,1.2513
6368.00,1.2519
6367.00,1.2524
6366.00,1.2530
6365.00,1.2535
6364.00,1.2538
6363.00,1.2540
6362.00,1.2541
6361.00,1.2544
6360.00,1.2548
6359.00,1.2552
6358.00,1.2555
6357.00,1.2560
6356.00,1.2565
6355.00,1.2570
6354.00,1.2572
6353.00,1.2572
6352.00,1.2571
6351.00,1.2569
6350.00,1.2567
6349.00,1.2562
6348.00,1.2554
6347.00,1.2544
6346.00,1.2532
6345.00,1.2520
6344.00,1.2511
6343.00,1.2503
6342.00,1.2497
6341.00,1.2491
6340.00,1.2483
6339.00,1.2473
6338.00,1.2463
6337.00,1.2451
6336.00,1.2439
6335.00,1.2426
6334.00,1.2414
6333.00,1.2402
6332.00,1.2390
6331.00,1.2376
6330.00,1.2361
6329.00,1.2348
6328.00,1.2334
6327.00,1.2320
6326.00,1.2304
6325.00,1.2287
6324.00,1.2269
6323.00,1.2250
6322.00,1.2229
6321.00,1.2210
6320.00,1.2192
6319.00,1.2172
6318.00,1.2147
6317.00,1.2119
6316.00,1.2089
6315.00,1.2059
6314.00,1.2033
6313.00,1.2009
6312.00,1.1989
6311.00,1.1968
6310.00,1.1947
6309.00,1.1924
6308.00,1.1898
6307.00,1.1869
6306.00,1.1838
6305.00,1.1808
6304.00,1.1779
6303.00,1.1752
6302.00,1.1723
6301.00,1.1691
6300.00,1.1657
6299.00,1.1620
6298.00,1.1584
6297.00,1.1549
6296.00,1.1513
6295.00,1.1477
6294.00,1.1441
6293.00,1.1405
6292.00,1.1370
6291.00,1.1333
6290.00,1.1295
6289.00,1.1257
6288.00,1.1219
6287.00,1.1182
6286.00,1.1142
6285.00,1.1102
6284.00,1.1060
6283.00,1.1018
6282.00,1.0975
6281.00,1.0932
6280.00,1.0889
6279.00,1.0846
6278.00,1.0803
6277.00,1.0758
6276.00,1.0712
6275.00,1.0668
6274.00,1.0623
6273.00,1.0577
6272.00,1.0530
6271.00,1.0482
6270.00,1.0435
6269.00,1.0388
6268.00,1.0338
6267.00,1.0287
6266.00,1.0236
6265.00,1.0187
6264.00,1.0138
6263.00,1.0089
6262.00,1.0040
6261.00,0.9990
6260.00,0.9938
6259.00,0.9885
6258.00,0.9831
6257.00,0.9777
6256.00,0.9725
6255.00,0.9674
6254.00,0.9623
6253.00,0.9573
6252.00,0.9522
6251.00,0.9470
6250.00,0.9418
6249.00,0.9366
6248.00,0.9314
6247.00,0.9264
6246.00,0.9216
6245.00,0.9168
6244.00,0.9118
6243.00,0.9067
6242.00,0.9015
6241.00,0.8964
6240.00,0.8914
6239.00,0.8863
6238.00,0.8811
6237.00,0.8759
6236.00,0.8708
6235.00,0.8657
6234.00,0.8606
6233.00,0.8556
6232.00,0.8508
6231.00,0.8462
6230.00,0.8416
6229.00,0.8371
6228.00,0.8325
6227.00,0.8278
6226.00,0.8232
6225.00,0.8186
6224.00,0.8141
6223.00,0.8096
6222.00,0.8052
6221.00,0.8008
6220.00,0.7965
6219.00,0.7922
6218.00,0.7880
6217.00,0.7837
6216.00,0.7796
6215.00,0.7756
6214.00,0.7716
6213.00,0.7678
6212.00,0.7640
6211.00,0.7602
6210.00,0.7565
6209.00,0.7528
6208.00,0.7491
6207.00,0.7456
6206.00,0.7422
6205.00,0.7390
6204.00,0.7359
6203.00,0.7328
6202.00,0.7298
6201.00,0.7270
6200.00,0.7243
6199.00,0.7216
6198.00,0.7191
6197.00,0.7168
6196.00,0.7146
6195.00,0.7125
6194.00,0.7104
6193.00,0.7086
6192.00,0.7069
6191.00,0.7053
6190.00,0.7040
6189.00,0.7028
6188.00,0.7017
6187.00,0.7008
6186.00,0.7002
6185.00,0.6996
6184.00,0.6992
6183.00,0.6990
6182.00,0.6989
6181.00,0.6990
6180.00,0.6994
6179.00,0.6999
6178.00,0.7005
6177.00,0.7014
6176.00,0.7023
6175.00,0.7034
6174.00,0.7046
6173.00,0.7059
6172.00,0.7075
6171.00,0.7092
6170.00,0.7112
6169.00,0.7133
6168.00,0.7155
6167.00,0.7178
6166.00,0.7202
6165.00,0.7228
6164.00,0.7256
6163.00,0.7286
6162.00,0.7317
6161.00,0.7350
6160.00,0.7383
6159.00,0.7417
6158.00,0.7452
6157.00,0.7489
6156.00,0.7526
6155.00,0.7566
6154.00,0.7607
6153.00,0.7649
6152.00,0.7692
6151.00,0.7735
6150.00,0.7778
6149.00,0.7823
6148.00,0.7868
6147.00,0.7913
6146.00,0.7959
6145.00,0.8008
6144.00,0.8057
6143.00,0.8107
6142.00,0.8158
6141.00,0.8209
6140.00,0.8262
6139.00,0.8314
6138.00,0.8366
6137.00,0.8419
6136.00,0.8472
6135.00,0.8524
6134.00,0.8578
6133.00,0.8633
6132.00,0.8688
6131.00,0.8743
6130.00,0.8797
6129.00,0.8852
6128.00,0.8907
6127.00,0.8963
6126.00,0.9019
6125.00,0.9076
6124.00,0.9134
6123.00,0.9193
6122.00,0.9250
6121.00,0.9308
6120.00,0.9366
6119.00,0.9423
6118.00,0.9479
6117.00,0.9535
6116.00,0.9591
6115.00,0.9648
6114.00,0.9704
6113.00,0.9759
6112.00,0.9815
6111.00,0.9869
6110.00,0.9922
6109.00,0.9973
6108.00,1.0024
6107.00,1.0075
6106.00,1.0127
6105.00,1.0180
6104.00,1.0236
6103.00,1.0293
6102.00,1.0351
6101.00,1.0409
6100.00,1.0465
6099.00,1.0519
6098.00,1.0572
6097.00,1.0623
6096.00,1.0673
6095.00,1.0721
6094.00,1.0768
6093.00,1.0816
6092.00,1.0864
6091.00,1.0912
6090.00,1.0960
6089.00,1.1008
6088.00,1.1056
6087.00,1.1105
6086.00,1.1153
6085.00,1.1199
6084.00,1.1244
6083.00,1.1287
6082.00,1.1331
6081.00,1.1374
6080.00,1.1416
6079.00,1.1457
6078.00,1.1498
6077.00,1.1539
6076.00,1.1580
6075.00,1.1622
6074.00,1.1664
6073.00,1.1707
6072.00,1.1748
6071.00,1.1786
6070.00,1.1820
6069.00,1.1854
6068.00,1.1888
6067.00,1.1924
6066.00,1.1962
6065.00,1.2001
6064.00,1.2040
6063.00,1.2076
6062.00,1.2111
6061.00,1.2144
6060.00,1.2176
6059.00,1.2208
6058.00,1.2241
6057.00,1.2275
6056.00,1.2307
6055.00,1.2336
6054.00,1.2361
6053.00,1.2386
6052.00,1.2413
6051.00,1.2440
6050.00,1.2466
6049.00,1.2492
6048.00,1.2518
6047.00,1.2544
6046.00,1.2569
6045.00,1.2593
6044.00,1.2616
6043.00,1.2637
6042.00,1.2658
6041.00,1.2677
6040.00,1.2695
6039.00,1.2711
6038.00,1.2730
6037.00,1.2751
6036.00,1.2772
6035.00,1.2792
6034.00,1.2810
6033.00,1.2826
6032.00,1.2839
6031.00,1.2849
6030.00,1.2859
6029.00,1.2871
6028.00,1.2884
6027.00,1.2897
6026.00,1.2909
6025.00,1.2923
6024.00,1.2939
6023.00,1.2953
6022.00,1.2964
6021.00,1.2974
6020.00,1.2983
6019.00,1.2990
6018.00,1.2993
6017.00,1.2995
6016.00,1.2999
6015.00,1.3004
6014.00,1.3009
6013.00,1.3014
6012.00,1.3022
6011.00,1.3032
6010.00,1.3041
6009.00,1.3047
6008.00,1.3050
6007.00,1.3050
6006.00,1.3049
6005.00,1.3047
6004.00,1.3045
6003.00,1.3043
6002.00,1.3043
6001.00,1.3043
6000.00,1.3044
5999.00,1.3043
5998.00,1.3040
5997.00,1.3036
5996.00,1.3033
5995.00,1.3029
5994.00,1.3024
5993.00,1.3017
5992.00,1.3010
5991.00,1.3002
5990.00,1.2995
5989.00,1.2987
5988.00,1.2977
5987.00,1.2964
5986.00,1.2951
5985.00,1.2939
5984.00,1.2928
5983.00,1.2918
5982.00,1.2909
5981.00,1.2899
5980.00,1.2887
5979.00,1.2873
5978.00,1.2855
5977.00,1.2836
5976.00,1.2818
5975.00,1.2800
5974.00,1.2783
5973.00,1.2766
5972.00,1.2749
5971.00,1.2730
5970.00,1.2710
5969.00,1.2690
5968.00,1.2670
5967.00,1.2650
5966.00,1.2630
5965.00,1.2607
5964.00,1.2584
5963.00,1.2559
5962.00,1.2533
5961.00,1.2505
5960.00,1.2476
5959.00,1.2448
5958.00,1.2422
5957.00,1.2395
5956.00,1.2368
5955.00,1.2339
5954.00,1.2310
5953.00,1.2281
5952.00,1.2252
5951.00,1.2221
5950.00,1.2189
5949.00,1.2159
5948.00,1.2128
5947.00,1.2096
5946.00,1.2063
5945.00,1.2029
5944.00,1.1996
5943.00,1.1962
5942.00,1.1925
5941.00,1.1885
5940.00,1.1845
5939.00,1.1806
5938.00,1.1767
5937.00,1.1729
5936.00,1.1692
5935.00,1.1655
5934.00,1.1617
5933.00,1.1578
5932.00,1.1536
5931.00,1.1492
5930.00,1.1448
5929.00,1.1403
5928.00,1.1358
5927.00,1.1313
5926.00,1.1267
5925.00,1.1221
5924.00,1.1176
5923.00,1.1129
5922.00,1.1082
5921.00,1.1033
5920.00,1.0985
5919.00,1.0935
5918.00,1.0884
5917.00,1.0832
5916.00,1.0780
5915.00,1.0728
5914.00,1.0676
5913.00,1.0624
5912.00,1.0570
5911.00,1.0514
5910.00,1.0456
5909.00,1.0397
5908.00,1.0338
5907.00,1.0279
5906.00,1.0220
5905.00,1.0163
5904.00,1.0107
5903.00,1.0051
5902.00,0.9995
5901.00,0.9939
5900.00,0.9881
5899.00,0.9822
5898.00,0.9763
5897.00,0.9703
5896.00,0.9644
5895.00,0.9585
5894.00,0.9526
5893.00,0.9466
5892.00,0.9404
5891.00,0.9342
5890.00,0.9280
5889.00,0.9219
5888.00,0.9159
5887.00,0.9101
5886.00,0.9042
5885.00,0.8984
5884.00,0.8924
5883.00,0.8865
5882.00,0.8805
5881.00,0.8746
5880.00,0.8688
5879.00,0.8629
5878.00,0.8571
5877.00,0.8512
5876.00,0.8454
5875.00,0.8396
5874.00,0.8340
5873.00,0.8287
5872.00,0.8234
5871.00,0.8182
5870.00,0.8130
5869.00,0.8078
5868.00,0.8027
5867.00,0.7977
5866.00,0.7928
5865.00,0.7882
5864.00,0.7836
5863.00,0.7792
5862.00,0.7749
5861.00,0.7707
5860.00,0.7666
5859.00,0.7624
5858.00,0.7585
5857.00,0.7547
5856.00,0.7512
5855.00,0.7477
5854.00,0.7443
5853.00,0.7411
5852.00,0.7381
5851.00,0.7352
5850.00,0.7324
5849.00,0.7299
5848.00,0.7276
5847.00,0.7255
5846.00,0.7236
5845.00,0.7219
5844.00,0.7203
5843.00,0.7189
5842.00,0.7178
5841.00,0.7168
5840.00,0.7159
5839.00,0.7152
5838.00,0.7147
5837.00,0.7145
5836.00,0.7145
5835.00,0.7147
5834.00,0.7152
5833.00,0.7158
5832.00,0.7166
5831.00,0.7175
5830.00,0.7186
5829.00,0.7199
5828.00,0.7214
5827.00,0.7230
5826.00,0.7247
5825.00,0.7267
5824.00,0.7288
5823.00,0.7311
5822.00,0.7336
5821.00,0.7363
5820.00,0.7392
5819.00,0.7422
5818.00,0.7452
5817.00,0.7484
5816.00,0.7517
5815.00,0.7552
5814.00,0.7588
5813.00,0.7625
5812.00,0.7664
5811.00,0.7705
5810.00,0.7747
5809.00,0.7790
5808.00,0.7833
5807.00,0.7877
5806.00,0.7923
5805.00,0.7970
5804.00,0.8018
5803.00,0.8066
5802.00,0.8115
5801.00,0.8166
5800.00,0.8218
5799.00,0.8270
5798.00,0.8323
5797.00,0.8376
5796.00,0.8430
5795.00,0.8483
5794.00,0.8537
5793.00,0.8592
5792.00,0.8649
5791.00,0.8706
5790.00,0.8765
5789.00,0.8823
5788.00,0.8882
5787.00,0.8941
5786.00,0.8999
5785.00,0.9057
5784.00,0.9117
5783.00,0.9176
5782.00,0.9235
5781.00,0.9295
5780.00,0.9355
5779.00,0.9415
5778.00,0.9475
5777.00,0.9535
5776.00,0.9596
5775.00,0.9657
5774.00,0.9718
5773.00,0.9779
5772.00,0.9840
5771.00,0.9902
5770.00,0.9964
5769.00,1.0025
5768.00,1.0085
5767.00,1.0145
5766.00,1.0204
5765.00,1.0264
5764.00,1.0324
5763.00,1.0384
5762.00,1.0444
5761.00,1.0503
5760.00,1.0560
5759.00,1.0616
5758.00,1.0672
5757.00,1.0729
5756.00,1.0786
5755.00,1.0842
5754.00,1.0897
5753.00,1.0950
5752.00,1.1003
5751.00,1.1056
5750.00,1.1110
5749.00,1.1165
5748.00,1.1219
5747.00,1.1273
5746.00,1.1326
5745.00,1.1377
5744.00,1.1427
5743.00,1.1478
5742.00,1.1527
5741.00,1.1576
5740.00,1.1624
5739.00,1.1670
5738.00,1.1716
5737.00,1.1762
5736.00,1.1809
5735.00,1.1856
5734.00,1.1902
5733.00,1.1948
5732.00,1.1992
5731.00,1.2034
5730.00,1.2073
5729.00,1.2112
5728.00,1.2151
5727.00,1.2189
5726.00,1.2228
5725.00,1.2266
5724.00,1.2305
5723.00,1.2343
5722.00,1.2382
5721.00,1.2420
5720.00,1.2458
5719.00,1.2496
5718.00,1.2531
5717.00,1.2563
5716.00,1.2592
5715.00,1.2620
5714.00,1.2649
5713.00,1.2679
5712.00,1.2709
5711.00,1.2738
5710.00,1.2767
5709.00,1.2795
5708.00,1.2823
5707.00,1.2852
5706.00,1.2881
5705.00,1.2911
5704.00,1.2940
5703.00,1.2966
5702.00,1.2991
5701.00,1.3014
5700.00,1.3037
5699.00,1.3060
5698.00,1.3081
5697.00,1.3101
5696.00,1.3120
5695.00,1.3139
5694.00,1.3156
5693.00,1.3174
5692.00,1.3193
5691.00,1.3214
5690.00,1.3234
5689.00,1.3251
5688.00,1.3265
5687.00,1.3279
5686.00,1.3292
5685.00,1.3305
5684.00,1.3319
5683.00,1.3332
5682.00,1.3345
5681.00,1.3356
5680.00,1.3368
5679.00,1.3380
5678.00,1.3392
5677.00,1.3405
5676.00,1.3417
5675.00,1.3427
5674.00,1.3434
