Created as New Dataset,Sample 173 By Administrator Date Friday, November 26 2021
cm-1,A
7000.00,1.0625
6999.00,1.0587
6998.00,1.0547
6997.00,1.0504
6996.00,1.0461
6995.00,1.0421
6994.00,1.0383
6993.00,1.0345
6992.00,1.0306
6991.00,1.0268
6990.00,1.0230
6989.00,1.0189
6988.00,1.0145
6987.00,1.0099
6986.00,1.0053
6985.00,1.0007
6984.00,0.9962
6983.00,0.9916
6982.00,0.9871
6981.00,0.9829
6980.00,0.9788
6979.00,0.9748
6978.00,0.9707
6977.00,0.9664
6976.00,0.9617
6975.00,0.9569
6974.00,0.9521
6973.00,0.9474
6972.00,0.9424
6971.00,0.9375
6970.00,0.9327
6969.00,0.9282
6968.00,0.9239
6967.00,0.9194
6966.00,0.9148
6965.00,0.9101
6964.00,0.9054
6963.00,0.9007
6962.00,0.8960
6961.00,0.8913
6960.00,0.8867
6959.00,0.8820
6958.00,0.8772
6957.00,0.8726
6956.00,0.8678
6955.00,0.8630
6954.00,0.8580
6953.00,0.8531
6952.00,0.8481
6951.00,0.8431
6950.00,0.8382
6949.00,0.8335
6948.00,0.8289
6947.00,0.8245
6946.00,0.8199
6945.00,0.8153
6944.00,0.8107
6943.00,0.8063
6942.00,0.8020
6941.00,0.7979
6940.00,0.7940
6939.00,0.7900
6938.00,0.7861
6937.00,0.7822
6936.00,0.7784
6935.00,0.7744
6934.00,0.7703
6933.00,0.7662
6932.00,0.7623
6931.00,0.7587
6930.00,0.7554
6929.00,0.7520
6928.00,0.7487
6927.00,0.7454
6926.00,0.7423
6925.00,0.7395
6924.00,0.7368
6923.00,0.7342
6922.00,0.7315
6921.00,0.7289
6920.00,0.7264
6919.00,0.7240
6918.00,0.7216
6917.00,0.7192
6916.00,0.7169
6915.00,0.7149
6914.00,0.7130
6913.00,0.7112
6912.00,0.7094
6911.00,0.7076
6910.00,0.7059
6909.00,0.7045
6908.00,0.7033
6907.00,0.7022
6906.00,0.7012
6905.00,0.7005
6904.00,0.7001
6903.00,0.6997
6902.00,0.6994
6901.00,0.6992
6900.00,0.6989
6899.00,0.6989
6898.00,0.6990
6897.00,0.6992
6896.00,0.6994
6895.00,0.6998
6894.00,0.7004
6893.00,0.7012
6892.00,0.7020
6891.00,0.7027
6890.00,0.7035
6889.00,0.7044
6888.00,0.7055
6887.00,0.7067
6886.00,0.7081
6885.00,0.7097
6884.00,0.7114
6883.00,0.7132
6882.00,0.7151
6881.00,0.7172
6880.00,0.7194
6879.00,0.7217
6878.00,0.7241
6877.00,0.7266
6876.00,0.7292
6875.00,0.7320
6874.00,0.7348
6873.00,0.7378
6872.00,0.7408
6871.00,0.7438
6870.00,0.7468
6869.00,0.7499
6868.00,0.7530
6867.00,0.7561
6866.00,0.7595
6865.00,0.7630
6864.00,0.7668
6863.00,0.7707
6862.00,0.7745
6861.00,0.7784
6860.00,0.7822
6859.00,0.7861
6858.00,0.7900
6857.00,0.7941
6856.00,0.7983
6855.00,0.8025
6854.00,0.8067
6853.00,0.8110
6852.00,0.8154
6851.00,0.8199
6850.00,0.8246
6849.00,0.8293
6848.00,0.8340
6847.00,0.8388
6846.00,0.8436
6845.00,0.8483
6844.00,0.8530
6843.00,0.8577
6842.00,0.8625
6841.00,0.8675
6840.00,0.8724
6839.00,0.8773
6838.00,0.8823
6837.00,0.8873
6836.00,0.8923
6835.00,0.8971
6834.00,0.9018
6833.00,0.9065
6832.00,0.9112
6831.00,0.9159
6830.00,0.9207
6829.00,0.9256
6828.00,0.9306
6827.00,0.9356
6826.00,0.9405
6825.00,0.9455
6824.00,0.9504
6823.00,0.9553
6822.00,0.9601
6821.00,0.9648
6820.00,0.9695
6819.00,0.9744
6818.00,0.9794
6817.00,0.9843
6816.00,0.9891
6815.00,0.9938
6814.00,0.9986
6813.00,1.0032
6812.00,1.0075
6811.00,1.0116
6810.00,1.0159
6809.00,1.0202
6808.00,1.0245
6807.00,1.0286
6806.00,1.0328
6805.00,1.0371
6804.00,1.0413
6803.00,1.0453
6802.00,1.0491
6801.00,1.0529
6800.00,1.0567
6799.00,1.0607
6798.00,1.0647
6797.00,1.0687
6796.00,1.0727
6795.00,1.0767
6794.00,1.0809
6793.00,1.0852
6792.00,1.0893
6791.00,1.0932
6790.00,1.0970
6789.00,1.1006
6788.00,1.1041
6787.00,1.1073
6786.00,1.1106
6785.00,1.1142
6784.00,1.1178
6783.00,1.1213
6782.00,1.1249
6781.00,1.1284
6780.00,1.1319
6779.00,1.1349
6778.00,1.1377
6777.00,1.1405
6776.00,1.1434
6775.00,1.1463
6774.00,1.1492
6773.00,1.1523
6772.00,1.1555
6771.00,1.1586
6770.00,1.1615
6769.00,1.1643
6768.00,1.1672
6767.00,1.1702
6766.00,1.1730
6765.00,1.1753
6764.00,1.1774
6763.00,1.1795
6762.00,1.1816
6761.00,1.1835
6760.00,1.1854
6759.00,1.1873
6758.00,1.1895
6757.00,1.1917
6756.00,1.1940
6755.00,1.1962
6754.00,1.1983
6753.00,1.2005
6752.00,1.2028
6751.00,1.2050
6750.00,1.2067
6749.00,1.2080
6748.00,1.2092
6747.00,1.2107
6746.00,1.2123
6745.00,1.2138
6744.00,1.2149
6743.00,1.2162
6742.00,1.2179
6741.00,1.2196
6740.00,1.2210
6739.00,1.2223
6738.00,1.2236
6737.00,1.2250
6736.00,1.2262
6735.00,1.2270
6734.00,1.2275
6733.00,1.2277
6732.00,1.2279
6731.00,1.2280
6730.00,1.2284
6729.00,1.2290
6728.00,1.2296
6727.00,1.2300
6726.00,1.2306
6725.00,1.2313
6724.00,1.2321
6723.00,1.2326
6722.00,1.2329
6721.00,1.2334
6720.00,1.2340
6719.00,1.2346
6718.00,1.2349
6717.00,1.2350
6716.00,1.2348
6715.00,1.2342
6714.00,1.2334
6713.00,1.2325
6712.00,1.2316
6711.00,1.2310
6710.00,1.2310
6709.00,1.2316
6708.00,1.2323
6707.00,1.2326
6706.00,1.2324
6705.00,1.2318
6704.00,1.2308
6703.00,1.2296
6702.00,1.2283
6701.00,1.2273
6700.00,1.2265
6699.00,1.2256
6698.00,1.2245
6697.00,1.2233
6696.00,1.2223
6695.00,1.2212
6694.00,1.2200
6693.00,1.2187
6692.00,1.2173
6691.00,1.2158
6690.00,1.2143
6689.00,1.2126
6688.00,1.2110
6687.00,1.2094
6686.00,1.2078
6685.00,1.2062
6684.00,1.2045
6683.00,1.2026
6682.00,1.2007
6681.00,1.1989
6680.00,1.1973
6679.00,1.1958
6678.00,1.1942
6677.00,1.1922
6676.00,1.1900
6675.00,1.1875
6674.00,1.1849
6673.00,1.1823
6672.00,1.1799
6671.00,1.1777
6670.00,1.1754
6669.00,1.1729
6668.00,1.1702
6667.00,1.1675
6666.00,1.1648
6665.00,1.1621
6664.00,1.1593
6663.00,1.1565
6662.00,1.1537
6661.00,1.1506
6660.00,1.1473
6659.00,1.1437
6658.00,1.1400
6657.00,1.1364
6656.00,1.1330
6655.00,1.1299
6654.00,1.1269
6653.00,1.1238
6652.00,1.1203
6651.00,1.1165
6650.00,1.1127
6649.00,1.1090
6648.00,1.1052
6647.00,1.1012
6646.00,1.0971
6645.00,1.0933
6644.00,1.0895
6643.00,1.0856
6642.00,1.0814
6641.00,1.0772
6640.00,1.0730
6639.00,1.0690
6638.00,1.0651
6637.00,1.0610
6636.00,1.0568
6635.00,1.0525
6634.00,1.0479
6633.00,1.0432
6632.00,1.0384
6631.00,1.0336
6630.00,1.0291
6629.00,1.0248
6628.00,1.0205
6627.00,1.0161
6626.00,1.0116
6625.00,1.0070
6624.00,1.0023
6623.00,0.9975
6622.00,0.9926
6621.00,0.9878
6620.00,0.9827
6619.00,0.9775
6618.00,0.9723
6617.00,0.9670
6616.00,0.9619
6615.00,0.9568
6614.00,0.9519
6613.00,0.9470
6612.00,0.9422
6611.00,0.9373
6610.00,0.9324
6609.00,0.9273
6608.00,0.9222
6607.00,0.9170
6606.00,0.9120
6605.00,0.9070
6604.00,0.9019
6603.00,0.8968
6602.00,0.8918
6601.00,0.8867
6600.00,0.8816
6599.00,0.8765
6598.00,0.8714
6597.00,0.8665
6596.00,0.8617
6595.00,0.8569
6594.00,0.8520
6593.00,0.8474
6592.00,0.8429
6591.00,0.8383
6590.00,0.8335
6589.00,0.8287
6588.00,0.8240
6587.00,0.8194
6586.00,0.8149
6585.00,0.8105
6584.00,0.8063
6583.00,0.8021
6582.00,0.7980
6581.00,0.7939
6580.00,0.7897
6579.00,0.7856
6578.00,0.7817
6577.00,0.7779
6576.00,0.7742
6575.00,0.7706
6574.00,0.7672
6573.00,0.7640
6572.00,0.7607
6571.00,0.7575
6570.00,0.7544
6569.00,0.7515
6568.00,0.7486
6567.00,0.7459
6566.00,0.7433
6565.00,0.7410
6564.00,0.7389
6563.00,0.7367
6562.00,0.7347
6561.00,0.7329
6560.00,0.7313
6559.00,0.7297
6558.00,0.7281
6557.00,0.7267
6556.00,0.7256
6555.00,0.7246
6554.00,0.7236
6553.00,0.7228
6552.00,0.7222
6551.00,0.7217
6550.00,0.7214
6549.00,0.7213
6548.00,0.7214
6547.00,0.7215
6546.00,0.7218
6545.00,0.7223
6544.00,0.7229
6543.00,0.7236
6542.00,0.7244
6541.00,0.7253
6540.00,0.7265
6539.00,0.7279
6538.00,0.7294
6537.00,0.7312
6536.00,0.7330
6535.00,0.7350
6534.00,0.7372
6533.00,0.7395
6532.00,0.7418
6531.00,0.7442
6530.00,0.7466
6529.00,0.7493
6528.00,0.7520
6527.00,0.7549
6526.00,0.7578
6525.00,0.7609
6524.00,0.7641
6523.00,0.7674
6522.00,0.7708
6521.00,0.7744
6520.00,0.7780
6519.00,0.7817
6518.00,0.7857
6517.00,0.7898
6516.00,0.7939
6515.00,0.7979
6514.00,0.8019
6513.00,0.8062
6512.00,0.8105
6511.00,0.8149
6510.00,0.8192
6509.00,0.8237
6508.00,0.8283
6507.00,0.8327
6506.00,0.8373
6505.00,0.8419
6504.00,0.8468
6503.00,0.8519
6502.00,0.8570
6501.00,0.8621
6500.00,0.8671
6499.00,0.8721
6498.00,0.8769
6497.00,0.8817
6496.00,0.8865
6495.00,0.8913
6494.00,0.8962
6493.00,0.9014
6492.00,0.9067
6491.00,0.9120
6490.00,0.9173
6489.00,0.9226
6488.00,0.9278
6487.00,0.9329
6486.00,0.9380
6485.00,0.9431
6484.00,0.9481
6483.00,0.9531
6482.00,0.9583
6481.00,0.9635
6480.00,0.9687
6479.00,0.9738
6478.00,0.9788
6477.00,0.9839
6476.00,0.9889
6475.00,0.9938
6474.00,0.9987
6473.00,1.0036
6472.00,1.0086
6471.00,1.0135
6470.00,1.0182
6469.00,1.0229
6468.00,1.0278
6467.00,1.0328
6466.00,1.0378
6465.00,1.0427
6464.00,1.0474
6463.00,1.0521
6462.00,1.0567
6461.00,1.0612
6460.00,1.0655
6459.00,1.0698
6458.00,1.0739
6457.00,1.0782
6456.00,1.0826
6455.00,1.0871
6454.00,1.0915
6453.00,1.0959
6452.00,1.1002
6451.00,1.1045
6450.00,1.1087
6449.00,1.1124
6448.00,1.1158
6447.00,1.1191
6446.00,1.1227
6445.00,1.1266
6444.00,1.1307
6443.00,1.1347
6442.00,1.1387
6441.00,1.1425
6440.00,1.1460
6439.00,1.1493
6438.00,1.1527
6437.00,1.1560
6436.00,1.1592
6435.00,1.1619
6434.00,1.1646
6433.00,1.1675
6432.00,1.1706
6431.00,1.1739
6430.00,1.1771
6429.00,1.1803
6428.00,1.1836
6427.00,1.1866
6426.00,1.1893
6425.00,1.1917
6424.00,1.1939
6423.00,1.1963
6422.00,1.1988
6421.00,1.2016
6420.00,1.2043
6419.00,1.2066
6418.00,1.2087
6417.00,1.2107
6416.00,1.2127
6415.00,1.2146
6414.00,1.2164
6413.00,1.2181
6412.00,1.2198
6411.00,1.2217
6410.00,1.2237
6409.00,1.2256
6408.00,1.2273
6407.00,1.2289
6406.00,1.2305
6405.00,1.2321
6404.00,1.2337
6403.00,1.2353
6402.00,1.2368
6401.00,1.2385
6400.00,1.2402
6399.00,1.2415
6398.00,1.2423
6397.00,1.2429
6396.00,1.2435
6395.00,1.2443
6394.00,1.2452
6393.00,1.2460
6392.00,1.2470
6391.00,1.2482
6390.00,1.2494
6389.00,1.2504
6388.00,1.2508
6387.00,1.2508
6386.00,1.2509
6385.00,1.2510
6384.00,1.2511
6383.00,1.2512
6382.00,1.2515
6381.00,1.2520
6380.00,1.2525
6379.00,1.2530
6378.00,1.2533
6377.00,1.2534
6376.00,1.2532
6375.00,1.2528
6374.00,1.2523
6373.00,1.2517
6372.00,1.2509
6371.00,1.2501
6370.00,1.2494
6369.00,1.2489
6368.00,1.2485
6367.00,1.2480
6366.00,1.2474
6365.00,1.2467
6364.00,1.2459
6363.00,1.2450
6362.00,1.2440
6361.00,1.2431
6360.00,1.2423
6359.00,1.2415
6358.00,1.2407
6357.00,1.2396
6356.00,1.2383
6355.00,1.2368
6354.00,1.2354
6353.00,1.2341
6352.00,1.2329
6351.00,1.2315
6350.00,1.2299
6349.00,1.2283
6348.00,1.2267
6347.00,1.2248
6346.00,1.2227
6345.00,1.2203
6344.00,1.2179
6343.00,1.2155
6342.00,1.2133
6341.00,1.2113
6340.00,1.2092
6339.00,1.2071
6338.00,1.2051
6337.00,1.2032
6336.00,1.2012
6335.00,1.1989
6334.00,1.1962
6333.00,1.1934
6332.00,1.1904
6331.00,1.1876
6330.00,1.1848
6329.00,1.1821
6328.00,1.1791
6327.00,1.1760
6326.00,1.1730
6325.00,1.1701
6324.00,1.1671
6323.00,1.1637
6322.00,1.1604
6321.00,1.1573
6320.00,1.1542
6319.00,1.1509
6318.00,1.1475
6317.00,1.1439
6316.00,1.1402
6315.00,1.1364
6314.00,1.1326
6313.00,1.1287
6312.00,1.1249
6311.00,1.1211
6310.00,1.1174
6309.00,1.1137
6308.00,1.1099
6307.00,1.1058
6306.00,1.1016
6305.00,1.0973
6304.00,1.0928
6303.00,1.0883
6302.00,1.0837
6301.00,1.0794
6300.00,1.0753
6299.00,1.0711
6298.00,1.0666
6297.00,1.0620
6296.00,1.0572
6295.00,1.0523
6294.00,1.0474
6293.00,1.0425
6292.00,1.0376
6291.00,1.0326
6290.00,1.0277
6289.00,1.0229
6288.00,1.0181
6287.00,1.0132
6286.00,1.0083
6285.00,1.0035
6284.00,0.9988
6283.00,0.9938
6282.00,0.9886
6281.00,0.9834
6280.00,0.9782
6279.00,0.9730
6278.00,0.9679
6277.00,0.9629
6276.00,0.9580
6275.00,0.9530
6274.00,0.9479
6273.00,0.9428
6272.00,0.9378
6271.00,0.9327
6270.00,0.9276
6269.00,0.9225
6268.00,0.9173
6267.00,0.9121
6266.00,0.9069
6265.00,0.9018
6264.00,0.8968
6263.00,0.8918
6262.00,0.8868
6261.00,0.8818
6260.00,0.8769
6259.00,0.8719
6258.00,0.8669
6257.00,0.8620
6256.00,0.8572
6255.00,0.8523
6254.00,0.8475
6253.00,0.8428
6252.00,0.8381
6251.00,0.8335
6250.00,0.8289
6249.00,0.8243
6248.00,0.8198
6247.00,0.8153
6246.00,0.8107
6245.00,0.8062
6244.00,0.8017
6243.00,0.7974
6242.00,0.7932
6241.00,0.7891
6240.00,0.7850
6239.00,0.7809
6238.00,0.7769
6237.00,0.7731
6236.00,0.7693
6235.00,0.7656
6234.00,0.7619
6233.00,0.7582
6232.00,0.7545
6231.00,0.7509
6230.00,0.7475
6229.00,0.7443
6228.00,0.7411
6227.00,0.7379
6226.00,0.7348
6225.00,0.7319
6224.00,0.7291
6223.00,0.7264
6222.00,0.7238
6221.00,0.7213
6220.00,0.7190
6219.00,0.7167
6218.00,0.7144
6217.00,0.7122
6216.00,0.7100
6215.00,0.7080
6214.00,0.7063
6213.00,0.7048
6212.00,0.7035
6211.00,0.7024
6210.00,0.7015
6209.00,0.7008
6208.00,0.7001
6207.00,0.6994
6206.00,0.6988
6205.00,0.6985
6204.00,0.6984
6203.00,0.6983
6202.00,0.6985
6201.00,0.6987
6200.00,0.6992
6199.00,0.6997
6198.00,0.7004
6197.00,0.7014
6196.00,0.7026
6195.00,0.7040
6194.00,0.7057
6193.00,0.7075
6192.00,0.7093
6191.00,0.7113
6190.00,0.7134
6189.00,0.7156
6188.00,0.7179
6187.00,0.7203
6186.00,0.7229
6185.00,0.7256
6184.00,0.7285
6183.00,0.7316
6182.00,0.7347
6181.00,0.7381
6180.00,0.7415
6179.00,0.7450
6178.00,0.7486
6177.00,0.7524
6176.00,0.7564
6175.00,0.7606
6174.00,0.7648
6173.00,0.7691
6172.00,0.7733
6171.00,0.7776
6170.00,0.7819
6169.00,0.7865
6168.00,0.7911
6167.00,0.7959
6166.00,0.8008
6165.00,0.8057
6164.00,0.8108
6163.00,0.8159
6162.00,0.8210
6161.00,0.8261
6160.00,0.8312
6159.00,0.8364
6158.00,0.8416
6157.00,0.8468
6156.00,0.8522
6155.00,0.8576
6154.00,0.8632
6153.00,0.8689
6152.00,0.8747
6151.00,0.8804
6150.00,0.8862
6149.00,0.8918
6148.00,0.8974
6147.00,0.9030
6146.00,0.9086
6145.00,0.9142
6144.00,0.9199
6143.00,0.9255
6142.00,0.9311
6141.00,0.9366
6140.00,0.9421
6139.00,0.9475
6138.00,0.9531
6137.00,0.9588
6136.00,0.9647
6135.00,0.9705
6134.00,0.9763
6133.00,0.9820
6132.00,0.9876
6131.00,0.9931
6130.00,0.9985
6129.00,1.0040
6128.00,1.0094
6127.00,1.0148
6126.00,1.0202
6125.00,1.0254
6124.00,1.0307
6123.00,1.0359
6122.00,1.0412
6121.00,1.0465
6120.00,1.0517
6119.00,1.0569
6118.00,1.0620
6117.00,1.0671
6116.00,1.0721
6115.00,1.0770
6114.00,1.0818
6113.00,1.0865
6112.00,1.0912
6111.00,1.0959
6110.00,1.1005
6109.00,1.1053
6108.00,1.1102
6107.00,1.1151
6106.00,1.1200
6105.00,1.1247
6104.00,1.1292
6103.00,1.1335
6102.00,1.1376
6101.00,1.1417
6100.00,1.1457
6099.00,1.1495
6098.00,1.1534
6097.00,1.1572
6096.00,1.1612
6095.00,1.1652
6094.00,1.1693
6093.00,1.1733
6092.00,1.1772
6091.00,1.1808
6090.00,1.1843
6089.00,1.1876
6088.00,1.1910
6087.00,1.1944
6086.00,1.1980
6085.00,1.2016
6084.00,1.2050
6083.00,1.2081
6082.00,1.2109
6081.00,1.2138
6080.00,1.2168
6079.00,1.2198
6078.00,1.2228
6077.00,1.2259
6076.00,1.2290
6075.00,1.2320
6074.00,1.2348
6073.00,1.2374
6072.00,1.2400
6071.00,1.2427
6070.00,1.2455
6069.00,1.2484
6068.00,1.2512
6067.00,1.2539
6066.00,1.2566
6065.00,1.2591
6064.00,1.2614
6063.00,1.2634
6062.00,1.2651
6061.00,1.2666
6060.00,1.2681
6059.00,1.2698
6058.00,1.2716
6057.00,1.2736
6056.00,1.2756
6055.00,1.2775
6054.00,1.2793
6053.00,1.2809
6052.00,1.2821
6051.00,1.2833
6050.00,1.2845
6049.00,1.2859
6048.00,1.2873
6047.00,1.2888
6046.00,1.2901
6045.00,1.2912
6044.00,1.2921
6043.00,1.2927
6042.00,1.2932
6041.00,1.2937
6040.00,1.2945
6039.00,1.2955
6038.00,1.2967
6037.00,1.2979
6036.00,1.2988
6035.00,1.2994
6034.00,1.3000
6033.00,1.3004
6032.00,1.3006
6031.00,1.3006
6030.00,1.3003
6029.00,1.3000
6028.00,1.2998
6027.00,1.2996
6026.00,1.2997
6025.00,1.2998
6024.00,1.3000
6023.00,1.3000
6022.00,1.3000
6021.00,1.2997
6020.00,1.2992
6019.00,1.2986
6018.00,1.2981
6017.00,1.2976
6016.00,1.2971
6015.00,1.2963
6014.00,1.2952
6013.00,1.2944
6012.00,1.2939
6011.00,1.2934
6010.00,1.2929
6009.00,1.2920
6008.00,1.2910
6007.00,1.2899
6006.00,1.2886
6005.00,1.2873
6004.00,1.2859
6003.00,1.2844
6002.00,1.2830
6001.00,1.2816
6000.00,1.2800
5999.00,1.2783
5998.00,1.2767
5997.00,1.2753
5996.00,1.2741
5995.00,1.2727
5994.00,1.2709
5993.00,1.2688
5992.00,1.2667
5991.00,1.2646
5990.00,1.2624
5989.00,1.2603
5988.00,1.2581
5987.00,1.2560
5986.00,1.2538
5985.00,1.2517
5984.00,1.2494
5983.00,1.2470
5982.00,1.2445
5981.00,1.2419
5980.00,1.2391
5979.00,1.2362
5978.00,1.2334
5977.00,1.2309
5976.00,1.2284
5975.00,1.2257
5974.00,1.2228
5973.00,1.2197
5972.00,1.2164
5971.00,1.2132
5970.00,1.2100
5969.00,1.2069
5968.00,1.2037
5967.00,1.2001
5966.00,1.1961
5965.00,1.1919
5964.00,1.1878
5963.00,1.1840
5962.00,1.1804
5961.00,1.1769
5960.00,1.1733
5959.00,1.1695
5958.00,1.1654
5957.00,1.1611
5956.00,1.1569
5955.00,1.1529
5954.00,1.1491
5953.00,1.1451
5952.00,1.1409
5951.00,1.1365
5950.00,1.1318
5949.00,1.1270
5948.00,1.1223
5947.00,1.1176
5946.00,1.1130
5945.00,1.1086
5944.00,1.1041
5943.00,1.0996
5942.00,1.0948
5941.00,1.0899
5940.00,1.0848
5939.00,1.0796
5938.00,1.0744
5937.00,1.0693
5936.00,1.0642
5935.00,1.0591
5934.00,1.0541
5933.00,1.0489
5932.00,1.0435
5931.00,1.0380
5930.00,1.0325
5929.00,1.0270
5928.00,1.0214
5927.00,1.0158
5926.00,1.0102
5925.00,1.0046
5924.00,0.9990
5923.00,0.9935
5922.00,0.9879
5921.00,0.9822
5920.00,0.9765
5919.00,0.9707
5918.00,0.9649
5917.00,0.9591
5916.00,0.9532
5915.00,0.9472
5914.00,0.9410
5913.00,0.9349
5912.00,0.9288
5911.00,0.9228
5910.00,0.9169
5909.00,0.9109
5908.00,0.9050
5907.00,0.8992
5906.00,0.8934
5905.00,0.8878
5904.00,0.8821
5903.00,0.8764
5902.00,0.8707
5901.00,0.8650
5900.00,0.8592
5899.00,0.8534
5898.00,0.8478
5897.00,0.8424
5896.00,0.8371
5895.00,0.8318
5894.00,0.8266
5893.00,0.8214
5892.00,0.8162
5891.00,0.8111
5890.00,0.8060
5889.00,0.8011
5888.00,0.7962
5887.00,0.7914
5886.00,0.7868
5885.00,0.7823
5884.00,0.7779
5883.00,0.7737
5882.00,0.7697
5881.00,0.7657
5880.00,0.7618
5879.00,0.7579
5878.00,0.7542
5877.00,0.7506
5876.00,0.7471
5875.00,0.7438
5874.00,0.7406
5873.00,0.7377
5872.00,0.7350
5871.00,0.7324
5870.00,0.7300
5869.00,0.7279
5868.00,0.7259
5867.00,0.7239
5866.00,0.7222
5865.00,0.7206
5864.00,0.7193
5863.00,0.7181
5862.00,0.7172
5861.00,0.7163
5860.00,0.7157
5859.00,0.7151
5858.00,0.7148
5857.00,0.7146
5856.00,0.7145
5855.00,0.7147
5854.00,0.7150
5853.00,0.7156
5852.00,0.7163
5851.00,0.7172
5850.00,0.7184
5849.00,0.7198
5848.00,0.7213
5847.00,0.7230
5846.00,0.7249
5845.00,0.7270
5844.00,0.7292
5843.00,0.7316
5842.00,0.7340
5841.00,0.7366
5840.00,0.7393
5839.00,0.7422
5838.00,0.7452
5837.00,0.7485
5836.00,0.7520
5835.00,0.7556
5834.00,0.7594
5833.00,0.7633
5832.00,0.7674
5831.00,0.7716
5830.00,0.7759
5829.00,0.7803
5828.00,0.7847
5827.00,0.7892
5826.00,0.7938
5825.00,0.7985
5824.00,0.8033
5823.00,0.8082
5822.00,0.8132
5821.00,0.8183
5820.00,0.8234
5819.00,0.8286
5818.00,0.8338
5817.00,0.8392
5816.00,0.8446
5815.00,0.8501
5814.00,0.8557
5813.00,0.8614
5812.00,0.8672
5811.00,0.8729
5810.00,0.8786
5809.00,0.8843
5808.00,0.8899
5807.00,0.8956
5806.00,0.9013
5805.00,0.9071
5804.00,0.9130
5803.00,0.9189
5802.00,0.9249
5801.00,0.9310
5800.00,0.9371
5799.00,0.9432
5798.00,0.9492
5797.00,0.9552
5796.00,0.9612
5795.00,0.9670
5794.00,0.9727
5793.00,0.9785
5792.00,0.9844
5791.00,0.9904
5790.00,0.9965
5789.00,1.0026
5788.00,1.0086
5787.00,1.0144
5786.00,1.0201
5785.00,1.0259
5784.00,1.0318
5783.00,1.0376
5782.00,1.0434
5781.00,1.0494
5780.00,1.0553
5779.00,1.0610
5778.00,1.0666
5777.00,1.0722
5776.00,1.0779
5775.00,1.0834
5774.00,1.0889
5773.00,1.0944
5772.00,1.0998
5771.00,1.1052
5770.00,1.1105
5769.00,1.1157
5768.00,1.1208
5767.00,1.1259
5766.00,1.1310
5765.00,1.1361
5764.00,1.1412
5763.00,1.1462
5762.00,1.1511
5761.00,1.1560
5760.00,1.1608
5759.00,1.1654
5758.00,1.1699
5757.00,1.1744
5756.00,1.1788
5755.00,1.1831
5754.00,1.1874
5753.00,1.1919
5752.00,1.1965
5751.00,1.2010
5750.00,1.2054
5749.00,1.2095
5748.00,1.2136
5747.00,1.2176
5746.00,1.2215
5745.00,1.2254
5744.00,1.2292
5743.00,1.2330
5742.00,1.2368
5741.00,1.2404
5740.00,1.2440
5739.00,1.2477
5738.00,1.2513
5737.00,1.2548
5736.00,1.2580
5735.00,1.2611
5734.00,1.2641
5733.00,1.2671
5732.00,1.2701
5731.00,1.2731
5730.00,1.2763
5729.00,1.2795
5728.00,1.2825
5727.00,1.2854
5726.00,1.2881
5725.00,1.2907
5724.00,1.2934
5723.00,1.2959
5722.00,1.2983
5721.00,1.3007
5720.00,1.3028
5719.00,1.3048
5718.00,1.3066
5717.00,1.3084
5716.00,1.3104
5715.00,1.3126
5714.00,1.3147
5713.00,1.3167
5712.00,1.3185
5711.00,1.3203
5710.00,1.3220
5709.00,1.3236
5708.00,1.3251
5707.00,1.3264
5706.00,1.3275
5705.00,1.3286
5704.00,1.3298
5703.00,1.3311
5702.00,1.3325
5701.00,1.3339
5700.00,1.3352
5699.00,1.3365
5698.00,1.3375
5697.00,1.3383
5696.00,1.3390
5695.00,1.3396
5694.00,1.3402
5693.00,1.3407
5692.00,1.3413
5691.00,1.3419
5690.00,1.3426
5689.00,1.3431
5688.00,1.3434
5687.00,1.3436
5686.00,1.3438
5685.00,1.3439
5684.00,1.3440
5683.00,1.3442
5682.00,1.3446
5681.00,1.3449
5680.00,1.3451
5679.00,1.3450
5678.00,1.3448
5677.00,1.3445
5676.00,1.3439
5675.00,1.3433
5674.00,1.3429
