Created as New Dataset,Sample 175 By Administrator Date Friday, November 26 2021
cm-1,A
7000.00,0.8150
6999.00,0.8109
6998.00,0.8069
6997.00,0.8031
6996.00,0.7993
6995.00,0.7957
6994.00,0.7921
6993.00,0.7884
6992.00,0.7848
6991.00,0.7812
6990.00,0.7776
6989.00,0.7741
6988.00,0.7707
6987.00,0.7674
6986.00,0.7642
6985.00,0.7609
6984.00,0.7578
6983.00,0.7548
6982.00,0.7520
6981.00,0.7491
6980.00,0.7461
6979.00,0.7433
6978.00,0.7407
6977.00,0.7383
6976.00,0.7360
6975.00,0.7337
6974.00,0.7314
6973.00,0.7292
6972.00,0.7272
6971.00,0.7252
6970.00,0.7233
6969.00,0.7214
6968.00,0.7197
6967.00,0.7182
6966.00,0.7167
6965.00,0.7154
6964.00,0.7140
6963.00,0.7127
6962.00,0.7116
6961.00,0.7106
6960.00,0.7098
6959.00,0.7089
6958.00,0.7082
6957.00,0.7075
6956.00,0.7070
6955.00,0.7067
6954.00,0.7065
6953.00,0.7064
6952.00,0.7064
6951.00,0.7066
6950.00,0.7068
6949.00,0.7070
6948.00,0.7073
6947.00,0.7076
6946.00,0.7081
6945.00,0.7088
6944.00,0.7096
6943.00,0.7106
6942.00,0.7116
6941.00,0.7128
6940.00,0.7141
6939.00,0.7156
6938.00,0.7171
6937.00,0.7187
6936.00,0.7204
6935.00,0.7220
6934.00,0.7236
6933.00,0.7255
6932.00,0.7275
6931.00,0.7296
6930.00,0.7318
6929.00,0.7343
6928.00,0.7368
6927.00,0.7394
6926.00,0.7420
6925.00,0.7447
6924.00,0.7475
6923.00,0.7503
6922.00,0.7530
6921.00,0.7559
6920.00,0.7590
6919.00,0.7623
6918.00,0.7656
6917.00,0.7688
6916.00,0.7722
6915.00,0.7758
6914.00,0.7794
6913.00,0.7829
6912.00,0.7863
6911.00,0.7897
6910.00,0.7934
6909.00,0.7972
6908.00,0.8012
6907.00,0.8052
6906.00,0.8093
6905.00,0.8134
6904.00,0.8175
6903.00,0.8217
6902.00,0.8259
6901.00,0.8301
6900.00,0.8343
6899.00,0.8386
6898.00,0.8430
6897.00,0.8476
6896.00,0.8520
6895.00,0.8564
6894.00,0.8609
6893.00,0.8656
6892.00,0.8706
6891.00,0.8755
6890.00,0.8803
6889.00,0.8849
6888.00,0.8894
6887.00,0.8940
6886.00,0.8985
6885.00,0.9029
6884.00,0.9074
6883.00,0.9120
6882.00,0.9169
6881.00,0.9220
6880.00,0.9271
6879.00,0.9320
6878.00,0.9366
6877.00,0.9411
6876.00,0.9455
6875.00,0.9500
6874.00,0.9544
6873.00,0.9589
6872.00,0.9634
6871.00,0.9681
6870.00,0.9728
6869.00,0.9776
6868.00,0.9823
6867.00,0.9870
6866.00,0.9916
6865.00,0.9960
6864.00,1.0004
6863.00,1.0048
6862.00,1.0092
6861.00,1.0136
6860.00,1.0178
6859.00,1.0221
6858.00,1.0264
6857.00,1.0308
6856.00,1.0352
6855.00,1.0396
6854.00,1.0438
6853.00,1.0479
6852.00,1.0520
6851.00,1.0561
6850.00,1.0601
6849.00,1.0640
6848.00,1.0679
6847.00,1.0717
6846.00,1.0756
6845.00,1.0795
6844.00,1.0835
6843.00,1.0874
6842.00,1.0914
6841.00,1.0954
6840.00,1.0991
6839.00,1.1026
6838.00,1.1059
6837.00,1.1093
6836.00,1.1126
6835.00,1.1159
6834.00,1.1193
6833.00,1.1227
6832.00,1.1261
6831.00,1.1294
6830.00,1.1324
6829.00,1.1353
6828.00,1.1381
6827.00,1.1409
6826.00,1.1438
6825.00,1.1468
6824.00,1.1498
6823.00,1.1527
6822.00,1.1556
6821.00,1.1584
6820.00,1.1614
6819.00,1.1644
6818.00,1.1673
6817.00,1.1699
6816.00,1.1722
6815.00,1.1744
6814.00,1.1768
6813.00,1.1792
6812.00,1.1814
6811.00,1.1833
6810.00,1.1852
6809.00,1.1873
6808.00,1.1894
6807.00,1.1912
6806.00,1.1927
6805.00,1.1942
6804.00,1.1959
6803.00,1.1979
6802.00,1.2000
6801.00,1.2019
6800.00,1.2036
6799.00,1.2052
6798.00,1.2068
6797.00,1.2084
6796.00,1.2097
6795.00,1.2104
6794.00,1.2108
6793.00,1.2111
6792.00,1.2116
6791.00,1.2126
6790.00,1.2138
6789.00,1.2151
6788.00,1.2166
6787.00,1.2179
6786.00,1.2188
6785.00,1.2193
6784.00,1.2196
6783.00,1.2200
6782.00,1.2205
6781.00,1.2212
6780.00,1.2218
6779.00,1.2225
6778.00,1.2234
6777.00,1.2243
6776.00,1.2249
6775.00,1.2251
6774.00,1.2252
6773.00,1.2253
6772.00,1.2255
6771.00,1.2256
6770.00,1.2256
6769.00,1.2256
6768.00,1.2258
6767.00,1.2260
6766.00,1.2261
6765.00,1.2260
6764.00,1.2254
6763.00,1.2246
6762.00,1.2240
6761.00,1.2236
6760.00,1.2232
6759.00,1.2227
6758.00,1.2221
6757.00,1.2215
6756.00,1.2208
6755.00,1.2198
6754.00,1.2186
6753.00,1.2172
6752.00,1.2159
6751.00,1.2148
6750.00,1.2139
6749.00,1.2129
6748.00,1.2118
6747.00,1.2107
6746.00,1.2096
6745.00,1.2085
6744.00,1.2073
6743.00,1.2058
6742.00,1.2042
6741.00,1.2027
6740.00,1.2013
6739.00,1.2001
6738.00,1.1987
6737.00,1.1973
6736.00,1.1957
6735.00,1.1940
6734.00,1.1921
6733.00,1.1900
6732.00,1.1876
6731.00,1.1851
6730.00,1.1828
6729.00,1.1805
6728.00,1.1782
6727.00,1.1758
6726.00,1.1734
6725.00,1.1713
6724.00,1.1693
6723.00,1.1670
6722.00,1.1643
6721.00,1.1614
6720.00,1.1585
6719.00,1.1558
6718.00,1.1532
6717.00,1.1507
6716.00,1.1482
6715.00,1.1455
6714.00,1.1424
6713.00,1.1389
6712.00,1.1352
6711.00,1.1314
6710.00,1.1277
6709.00,1.1242
6708.00,1.1211
6707.00,1.1185
6706.00,1.1160
6705.00,1.1133
6704.00,1.1101
6703.00,1.1064
6702.00,1.1026
6701.00,1.0988
6700.00,1.0950
6699.00,1.0911
6698.00,1.0872
6697.00,1.0835
6696.00,1.0800
6695.00,1.0764
6694.00,1.0724
6693.00,1.0683
6692.00,1.0641
6691.00,1.0600
6690.00,1.0561
6689.00,1.0522
6688.00,1.0481
6687.00,1.0437
6686.00,1.0393
6685.00,1.0347
6684.00,1.0301
6683.00,1.0254
6682.00,1.0209
6681.00,1.0165
6680.00,1.0123
6679.00,1.0079
6678.00,1.0034
6677.00,0.9988
6676.00,0.9941
6675.00,0.9894
6674.00,0.9846
6673.00,0.9799
6672.00,0.9753
6671.00,0.9708
6670.00,0.9661
6669.00,0.9613
6668.00,0.9565
6667.00,0.9518
6666.00,0.9472
6665.00,0.9426
6664.00,0.9380
6663.00,0.9333
6662.00,0.9287
6661.00,0.9242
6660.00,0.9195
6659.00,0.9147
6658.00,0.9099
6657.00,0.9051
6656.00,0.9004
6655.00,0.8957
6654.00,0.8909
6653.00,0.8862
6652.00,0.8815
6651.00,0.8769
6650.00,0.8723
6649.00,0.8678
6648.00,0.8633
6647.00,0.8588
6646.00,0.8543
6645.00,0.8500
6644.00,0.8458
6643.00,0.8417
6642.00,0.8375
6641.00,0.8334
6640.00,0.8293
6639.00,0.8252
6638.00,0.8211
6637.00,0.8169
6636.00,0.8128
6635.00,0.8089
6634.00,0.8050
6633.00,0.8013
6632.00,0.7976
6631.00,0.7941
6630.00,0.7907
6629.00,0.7874
6628.00,0.7841
6627.00,0.7809
6626.00,0.7779
6625.00,0.7750
6624.00,0.7720
6623.00,0.7689
6622.00,0.7659
6621.00,0.7631
6620.00,0.7606
6619.00,0.7580
6618.00,0.7556
6617.00,0.7533
6616.00,0.7512
6615.00,0.7491
6614.00,0.7470
6613.00,0.7451
6612.00,0.7433
6611.00,0.7418
6610.00,0.7404
6609.00,0.7392
6608.00,0.7381
6607.00,0.7371
6606.00,0.7361
6605.00,0.7352
6604.00,0.7344
6603.00,0.7337
6602.00,0.7331
6601.00,0.7327
6600.00,0.7325
6599.00,0.7324
6598.00,0.7326
6597.00,0.7329
6596.00,0.7333
6595.00,0.7337
6594.00,0.7341
6593.00,0.7347
6592.00,0.7354
6591.00,0.7362
6590.00,0.7371
6589.00,0.7382
6588.00,0.7395
6587.00,0.7409
6586.00,0.7425
6585.00,0.7442
6584.00,0.7461
6583.00,0.7481
6582.00,0.7501
6581.00,0.7523
6580.00,0.7545
6579.00,0.7569
6578.00,0.7594
6577.00,0.7620
6576.00,0.7647
6575.00,0.7675
6574.00,0.7705
6573.00,0.7738
6572.00,0.7770
6571.00,0.7803
6570.00,0.7836
6569.00,0.7870
6568.00,0.7905
6567.00,0.7939
6566.00,0.7974
6565.00,0.8010
6564.00,0.8048
6563.00,0.8087
6562.00,0.8127
6561.00,0.8168
6560.00,0.8210
6559.00,0.8252
6558.00,0.8295
6557.00,0.8339
6556.00,0.8383
6555.00,0.8427
6554.00,0.8471
6553.00,0.8514
6552.00,0.8558
6551.00,0.8602
6550.00,0.8648
6549.00,0.8696
6548.00,0.8745
6547.00,0.8794
6546.00,0.8843
6545.00,0.8890
6544.00,0.8938
6543.00,0.8986
6542.00,0.9034
6541.00,0.9083
6540.00,0.9132
6539.00,0.9182
6538.00,0.9233
6537.00,0.9283
6536.00,0.9332
6535.00,0.9379
6534.00,0.9427
6533.00,0.9476
6532.00,0.9524
6531.00,0.9573
6530.00,0.9621
6529.00,0.9670
6528.00,0.9718
6527.00,0.9766
6526.00,0.9815
6525.00,0.9864
6524.00,0.9913
6523.00,0.9962
6522.00,1.0013
6521.00,1.0064
6520.00,1.0115
6519.00,1.0163
6518.00,1.0208
6517.00,1.0254
6516.00,1.0300
6515.00,1.0345
6514.00,1.0388
6513.00,1.0432
6512.00,1.0477
6511.00,1.0523
6510.00,1.0568
6509.00,1.0612
6508.00,1.0655
6507.00,1.0697
6506.00,1.0738
6505.00,1.0780
6504.00,1.0823
6503.00,1.0866
6502.00,1.0907
6501.00,1.0947
6500.00,1.0985
6499.00,1.1024
6498.00,1.1064
6497.00,1.1104
6496.00,1.1143
6495.00,1.1182
6494.00,1.1222
6493.00,1.1262
6492.00,1.1298
6491.00,1.1330
6490.00,1.1363
6489.00,1.1399
6488.00,1.1436
6487.00,1.1470
6486.00,1.1499
6485.00,1.1527
6484.00,1.1556
6483.00,1.1585
6482.00,1.1614
6481.00,1.1640
6480.00,1.1667
6479.00,1.1697
6478.00,1.1729
6477.00,1.1761
6476.00,1.1791
6475.00,1.1819
6474.00,1.1847
6473.00,1.1873
6472.00,1.1898
6471.00,1.1919
6470.00,1.1938
6469.00,1.1957
6468.00,1.1980
6467.00,1.2004
6466.00,1.2029
6465.00,1.2054
6464.00,1.2078
6463.00,1.2100
6462.00,1.2119
6461.00,1.2136
6460.00,1.2152
6459.00,1.2169
6458.00,1.2187
6457.00,1.2203
6456.00,1.2218
6455.00,1.2232
6454.00,1.2246
6453.00,1.2258
6452.00,1.2271
6451.00,1.2285
6450.00,1.2302
6449.00,1.2320
6448.00,1.2337
6447.00,1.2349
6446.00,1.2357
6445.00,1.2363
6444.00,1.2368
6443.00,1.2373
6442.00,1.2377
6441.00,1.2381
6440.00,1.2387
6439.00,1.2396
6438.00,1.2407
6437.00,1.2418
6436.00,1.2426
6435.00,1.2433
6434.00,1.2438
6433.00,1.2441
6432.00,1.2440
6431.00,1.2437
6430.00,1.2435
6429.00,1.2436
6428.00,1.2440
6427.00,1.2444
6426.00,1.2445
6425.00,1.2442
6424.00,1.2437
6423.00,1.2431
6422.00,1.2426
6421.00,1.2422
6420.00,1.2417
6419.00,1.2412
6418.00,1.2408
6417.00,1.2403
6416.00,1.2395
6415.00,1.2385
6414.00,1.2374
6413.00,1.2363
6412.00,1.2353
6411.00,1.2344
6410.00,1.2335
6409.00,1.2328
6408.00,1.2318
6407.00,1.2307
6406.00,1.2294
6405.00,1.2282
6404.00,1.2270
6403.00,1.2257
6402.00,1.2243
6401.00,1.2230
6400.00,1.2215
6399.00,1.2197
6398.00,1.2176
6397.00,1.2154
6396.00,1.2133
6395.00,1.2113
6394.00,1.2094
6393.00,1.2077
6392.00,1.2060
6391.00,1.2039
6390.00,1.2015
6389.00,1.1987
6388.00,1.1959
6387.00,1.1932
6386.00,1.1906
6385.00,1.1881
6384.00,1.1857
6383.00,1.1833
6382.00,1.1810
6381.00,1.1783
6380.00,1.1751
6379.00,1.1719
6378.00,1.1690
6377.00,1.1665
6376.00,1.1639
6375.00,1.1611
6374.00,1.1583
6373.00,1.1553
6372.00,1.1521
6371.00,1.1486
6370.00,1.1449
6369.00,1.1410
6368.00,1.1372
6367.00,1.1337
6366.00,1.1304
6365.00,1.1273
6364.00,1.1241
6363.00,1.1206
6362.00,1.1169
6361.00,1.1130
6360.00,1.1089
6359.00,1.1046
6358.00,1.1003
6357.00,1.0963
6356.00,1.0924
6355.00,1.0885
6354.00,1.0845
6353.00,1.0804
6352.00,1.0761
6351.00,1.0716
6350.00,1.0670
6349.00,1.0625
6348.00,1.0583
6347.00,1.0540
6346.00,1.0496
6345.00,1.0451
6344.00,1.0407
6343.00,1.0363
6342.00,1.0318
6341.00,1.0271
6340.00,1.0223
6339.00,1.0175
6338.00,1.0127
6337.00,1.0080
6336.00,1.0032
6335.00,0.9984
6334.00,0.9934
6333.00,0.9885
6332.00,0.9836
6331.00,0.9787
6330.00,0.9738
6329.00,0.9688
6328.00,0.9637
6327.00,0.9586
6326.00,0.9536
6325.00,0.9487
6324.00,0.9438
6323.00,0.9389
6322.00,0.9341
6321.00,0.9293
6320.00,0.9245
6319.00,0.9195
6318.00,0.9144
6317.00,0.9094
6316.00,0.9044
6315.00,0.8994
6314.00,0.8944
6313.00,0.8895
6312.00,0.8847
6311.00,0.8801
6310.00,0.8756
6309.00,0.8711
6308.00,0.8666
6307.00,0.8620
6306.00,0.8573
6305.00,0.8526
6304.00,0.8480
6303.00,0.8434
6302.00,0.8389
6301.00,0.8345
6300.00,0.8303
6299.00,0.8261
6298.00,0.8219
6297.00,0.8176
6296.00,0.8134
6295.00,0.8093
6294.00,0.8053
6293.00,0.8014
6292.00,0.7975
6291.00,0.7937
6290.00,0.7898
6289.00,0.7861
6288.00,0.7824
6287.00,0.7788
6286.00,0.7752
6285.00,0.7718
6284.00,0.7685
6283.00,0.7652
6282.00,0.7619
6281.00,0.7587
6280.00,0.7556
6279.00,0.7525
6278.00,0.7495
6277.00,0.7466
6276.00,0.7438
6275.00,0.7411
6274.00,0.7385
6273.00,0.7360
6272.00,0.7336
6271.00,0.7313
6270.00,0.7290
6269.00,0.7268
6268.00,0.7246
6267.00,0.7225
6266.00,0.7205
6265.00,0.7188
6264.00,0.7172
6263.00,0.7157
6262.00,0.7143
6261.00,0.7131
6260.00,0.7119
6259.00,0.7108
6258.00,0.7097
6257.00,0.7088
6256.00,0.7082
6255.00,0.7077
6254.00,0.7074
6253.00,0.7072
6252.00,0.7071
6251.00,0.7071
6250.00,0.7072
6249.00,0.7074
6248.00,0.7077
6247.00,0.7082
6246.00,0.7089
6245.00,0.7097
6244.00,0.7108
6243.00,0.7119
6242.00,0.7132
6241.00,0.7147
6240.00,0.7163
6239.00,0.7179
6238.00,0.7196
6237.00,0.7215
6236.00,0.7235
6235.00,0.7257
6234.00,0.7280
6233.00,0.7306
6232.00,0.7333
6231.00,0.7360
6230.00,0.7387
6229.00,0.7416
6228.00,0.7446
6227.00,0.7478
6226.00,0.7512
6225.00,0.7547
6224.00,0.7582
6223.00,0.7617
6222.00,0.7653
6221.00,0.7689
6220.00,0.7727
6219.00,0.7767
6218.00,0.7809
6217.00,0.7853
6216.00,0.7897
6215.00,0.7940
6214.00,0.7982
6213.00,0.8025
6212.00,0.8067
6211.00,0.8111
6210.00,0.8156
6209.00,0.8205
6208.00,0.8255
6207.00,0.8306
6206.00,0.8358
6205.00,0.8409
6204.00,0.8460
6203.00,0.8511
6202.00,0.8563
6201.00,0.8614
6200.00,0.8666
6199.00,0.8717
6198.00,0.8768
6197.00,0.8820
6196.00,0.8873
6195.00,0.8926
6194.00,0.8979
6193.00,0.9034
6192.00,0.9089
6191.00,0.9144
6190.00,0.9198
6189.00,0.9252
6188.00,0.9307
6187.00,0.9361
6186.00,0.9415
6185.00,0.9469
6184.00,0.9524
6183.00,0.9579
6182.00,0.9635
6181.00,0.9690
6180.00,0.9743
6179.00,0.9795
6178.00,0.9848
6177.00,0.9900
6176.00,0.9952
6175.00,1.0005
6174.00,1.0058
6173.00,1.0112
6172.00,1.0165
6171.00,1.0217
6170.00,1.0267
6169.00,1.0319
6168.00,1.0371
6167.00,1.0425
6166.00,1.0478
6165.00,1.0529
6164.00,1.0579
6163.00,1.0629
6162.00,1.0679
6161.00,1.0728
6160.00,1.0776
6159.00,1.0823
6158.00,1.0869
6157.00,1.0915
6156.00,1.0961
6155.00,1.1005
6154.00,1.1048
6153.00,1.1091
6152.00,1.1134
6151.00,1.1178
6150.00,1.1221
6149.00,1.1263
6148.00,1.1305
6147.00,1.1348
6146.00,1.1390
6145.00,1.1433
6144.00,1.1475
6143.00,1.1516
6142.00,1.1557
6141.00,1.1597
6140.00,1.1636
6139.00,1.1673
6138.00,1.1709
6137.00,1.1744
6136.00,1.1780
6135.00,1.1815
6134.00,1.1851
6133.00,1.1886
6132.00,1.1920
6131.00,1.1952
6130.00,1.1982
6129.00,1.2011
6128.00,1.2040
6127.00,1.2071
6126.00,1.2102
6125.00,1.2134
6124.00,1.2165
6123.00,1.2196
6122.00,1.2226
6121.00,1.2254
6120.00,1.2278
6119.00,1.2302
6118.00,1.2328
6117.00,1.2355
6116.00,1.2381
6115.00,1.2404
6114.00,1.2425
6113.00,1.2445
6112.00,1.2465
6111.00,1.2486
6110.00,1.2509
6109.00,1.2533
6108.00,1.2555
6107.00,1.2574
6106.00,1.2588
6105.00,1.2602
6104.00,1.2617
6103.00,1.2633
6102.00,1.2650
6101.00,1.2668
6100.00,1.2687
6099.00,1.2704
6098.00,1.2718
6097.00,1.2730
6096.00,1.2743
6095.00,1.2757
6094.00,1.2772
6093.00,1.2786
6092.00,1.2800
6091.00,1.2814
6090.00,1.2828
6089.00,1.2839
6088.00,1.2847
6087.00,1.2851
6086.00,1.2854
6085.00,1.2855
6084.00,1.2857
6083.00,1.2863
6082.00,1.2871
6081.00,1.2880
6080.00,1.2886
6079.00,1.2889
6078.00,1.2889
6077.00,1.2889
6076.00,1.2888
6075.00,1.2887
6074.00,1.2886
6073.00,1.2888
6072.00,1.2891
6071.00,1.2895
6070.00,1.2898
6069.00,1.2902
6068.00,1.2903
6067.00,1.2901
6066.00,1.2896
6065.00,1.2888
6064.00,1.2879
6063.00,1.2871
6062.00,1.2864
6061.00,1.2859
6060.00,1.2853
6059.00,1.2845
6058.00,1.2835
6057.00,1.2824
6056.00,1.2813
6055.00,1.2803
6054.00,1.2793
6053.00,1.2783
6052.00,1.2772
6051.00,1.2760
6050.00,1.2746
6049.00,1.2731
6048.00,1.2716
6047.00,1.2702
6046.00,1.2687
6045.00,1.2672
6044.00,1.2655
6043.00,1.2637
6042.00,1.2620
6041.00,1.2605
6040.00,1.2590
6039.00,1.2574
6038.00,1.2555
6037.00,1.2534
6036.00,1.2511
6035.00,1.2488
6034.00,1.2465
6033.00,1.2442
6032.00,1.2418
6031.00,1.2393
6030.00,1.2367
6029.00,1.2341
6028.00,1.2314
6027.00,1.2287
6026.00,1.2261
6025.00,1.2236
6024.00,1.2212
6023.00,1.2185
6022.00,1.2156
6021.00,1.2125
6020.00,1.2093
6019.00,1.2060
6018.00,1.2027
6017.00,1.1993
6016.00,1.1960
6015.00,1.1927
6014.00,1.1892
6013.00,1.1857
6012.00,1.1820
6011.00,1.1781
6010.00,1.1742
6009.00,1.1704
6008.00,1.1669
6007.00,1.1635
6006.00,1.1599
6005.00,1.1562
6004.00,1.1521
6003.00,1.1480
6002.00,1.1437
6001.00,1.1394
6000.00,1.1350
5999.00,1.1307
5998.00,1.1265
5997.00,1.1221
5996.00,1.1176
5995.00,1.1128
5994.00,1.1078
5993.00,1.1029
5992.00,1.0981
5991.00,1.0936
5990.00,1.0892
5989.00,1.0849
5988.00,1.0804
5987.00,1.0757
5986.00,1.0708
5985.00,1.0657
5984.00,1.0606
5983.00,1.0555
5982.00,1.0504
5981.00,1.0453
5980.00,1.0400
5979.00,1.0345
5978.00,1.0290
5977.00,1.0236
5976.00,1.0182
5975.00,1.0129
5974.00,1.0075
5973.00,1.0022
5972.00,0.9967
5971.00,0.9911
5970.00,0.9855
5969.00,0.9800
5968.00,0.9745
5967.00,0.9691
5966.00,0.9636
5965.00,0.9579
5964.00,0.9522
5963.00,0.9464
5962.00,0.9408
5961.00,0.9351
5960.00,0.9295
5959.00,0.9240
5958.00,0.9186
5957.00,0.9133
5956.00,0.9080
5955.00,0.9025
5954.00,0.8970
5953.00,0.8915
5952.00,0.8861
5951.00,0.8807
5950.00,0.8753
5949.00,0.8700
5948.00,0.8647
5947.00,0.8595
5946.00,0.8543
5945.00,0.8492
5944.00,0.8440
5943.00,0.8389
5942.00,0.8339
5941.00,0.8290
5940.00,0.8242
5939.00,0.8194
5938.00,0.8147
5937.00,0.8102
5936.00,0.8058
5935.00,0.8014
5934.00,0.7970
5933.00,0.7927
5932.00,0.7886
5931.00,0.7845
5930.00,0.7805
5929.00,0.7766
5928.00,0.7728
5927.00,0.7691
5926.00,0.7655
5925.00,0.7621
5924.00,0.7588
5923.00,0.7557
5922.00,0.7526
5921.00,0.7497
5920.00,0.7469
5919.00,0.7441
5918.00,0.7416
5917.00,0.7391
5916.00,0.7368
5915.00,0.7345
5914.00,0.7324
5913.00,0.7305
5912.00,0.7287
5911.00,0.7271
5910.00,0.7258
5909.00,0.7247
5908.00,0.7238
5907.00,0.7229
5906.00,0.7222
5905.00,0.7216
5904.00,0.7211
5903.00,0.7207
5902.00,0.7206
5901.00,0.7207
5900.00,0.7210
5899.00,0.7214
5898.00,0.7220
5897.00,0.7228
5896.00,0.7238
5895.00,0.7249
5894.00,0.7263
5893.00,0.7278
5892.00,0.7295
5891.00,0.7312
5890.00,0.7331
5889.00,0.7352
5888.00,0.7374
5887.00,0.7398
5886.00,0.7424
5885.00,0.7451
5884.00,0.7479
5883.00,0.7508
5882.00,0.7537
5881.00,0.7568
5880.00,0.7600
5879.00,0.7634
5878.00,0.7670
5877.00,0.7707
5876.00,0.7746
5875.00,0.7786
5874.00,0.7827
5873.00,0.7870
5872.00,0.7913
5871.00,0.7957
5870.00,0.8002
5869.00,0.8047
5868.00,0.8094
5867.00,0.8142
5866.00,0.8190
5865.00,0.8239
5864.00,0.8288
5863.00,0.8338
5862.00,0.8388
5861.00,0.8439
5860.00,0.8491
5859.00,0.8544
5858.00,0.8598
5857.00,0.8653
5856.00,0.8707
5855.00,0.8762
5854.00,0.8817
5853.00,0.8872
5852.00,0.8928
5851.00,0.8983
5850.00,0.9039
5849.00,0.9095
5848.00,0.9151
5847.00,0.9207
5846.00,0.9264
5845.00,0.9322
5844.00,0.9381
5843.00,0.9440
5842.00,0.9498
5841.00,0.9556
5840.00,0.9614
5839.00,0.9671
5838.00,0.9727
5837.00,0.9785
5836.00,0.9841
5835.00,0.9898
5834.00,0.9955
5833.00,1.0012
5832.00,1.0068
5831.00,1.0125
5830.00,1.0182
5829.00,1.0239
5828.00,1.0296
5827.00,1.0351
5826.00,1.0406
5825.00,1.0462
5824.00,1.0519
5823.00,1.0575
5822.00,1.0631
5821.00,1.0686
5820.00,1.0740
5819.00,1.0794
5818.00,1.0847
5817.00,1.0900
5816.00,1.0952
5815.00,1.1004
5814.00,1.1054
5813.00,1.1104
5812.00,1.1153
5811.00,1.1201
5810.00,1.1249
5809.00,1.1297
5808.00,1.1344
5807.00,1.1391
5806.00,1.1438
5805.00,1.1485
5804.00,1.1531
5803.00,1.1577
5802.00,1.1623
5801.00,1.1666
5800.00,1.1708
5799.00,1.1750
5798.00,1.1792
5797.00,1.1835
5796.00,1.1876
5795.00,1.1915
5794.00,1.1954
5793.00,1.1992
5792.00,1.2029
5791.00,1.2066
5790.00,1.2104
5789.00,1.2143
5788.00,1.2182
5787.00,1.2220
5786.00,1.2258
5785.00,1.2295
5784.00,1.2331
5783.00,1.2365
5782.00,1.2398
5781.00,1.2430
5780.00,1.2462
5779.00,1.2495
5778.00,1.2528
5777.00,1.2561
5776.00,1.2594
5775.00,1.2625
5774.00,1.2654
5773.00,1.2682
5772.00,1.2710
5771.00,1.2738
5770.00,1.2764
5769.00,1.2789
5768.00,1.2814
5767.00,1.2839
5766.00,1.2864
5765.00,1.2889
5764.00,1.2912
5763.00,1.2934
5762.00,1.2955
5761.00,1.2975
5760.00,1.2995
5759.00,1.3015
5758.00,1.3036
5757.00,1.3056
5756.00,1.3074
5755.00,1.3089
5754.00,1.3105
5753.00,1.3124
5752.00,1.3143
5751.00,1.3161
5750.00,1.3178
5749.00,1.3193
5748.00,1.3207
5747.00,1.3218
5746.00,1.3227
5745.00,1.3238
5744.00,1.3250
5743.00,1.3262
5742.00,1.3273
5741.00,1.3282
5740.00,1.3293
5739.00,1.3304
5738.00,1.3313
5737.00,1.3320
5736.00,1.3327
5735.00,1.3333
5734.00,1.3339
5733.00,1.3345
5732.00,1.3350
5731.00,1.3356
5730.00,1.3364
5729.00,1.3371
5728.00,1.3375
5727.00,1.3377
5726.00,1.3379
5725.00,1.3380
5724.00,1.3379
5723.00,1.3377
5722.00,1.3374
5721.00,1.3371
5720.00,1.3368
5719.00,1.3363
5718.00,1.3359
5717.00,1.3356
5716.00,1.3353
5715.00,1.3349
5714.00,1.3344
5713.00,1.3339
5712.00,1.3332
5711.00,1.3324
5710.00,1.3316
5709.00,1.3308
5708.00,1.3299
5707.00,1.3288
5706.00,1.3275
5705.00,1.3262
5704.00,1.3247
5703.00,1.3231
5702.00,1.3214
5701.00,1.3198
5700.00,1.3182
5699.00,1.3166
5698.00,1.3151
5697.00,1.3136
5696.00,1.3120
5695.00,1.3101
5694.00,1.3083
5693.00,1.3065
5692.00,1.3045
5691.00,1.3024
5690.00,1.3002
5689.00,1.2980
5688.00,1.2957
5687.00,1.2934
5686.00,1.2911
5685.00,1.2888
5684.00,1.2863
5683.00,1.2837
5682.00,1.2809
5681.00,1.2782
5680.00,1.2756
5679.00,1.2728
5678.00,1.2701
5677.00,1.2675
5676.00,1.2648
5675.00,1.2618
5674.00,1.2586
