Created as New Dataset,Sample 177 By Administrator Date Friday, November 26 2021
cm-1,A
7000.00,1.1664
6999.00,1.1643
6998.00,1.1619
6997.00,1.1597
6996.00,1.1578
6995.00,1.1562
6994.00,1.1545
6993.00,1.1525
6992.00,1.1503
6991.00,1.1482
6990.00,1.1460
6989.00,1.1435
6988.00,1.1405
6987.00,1.1375
6986.00,1.1348
6985.00,1.1324
6984.00,1.1299
6983.00,1.1271
6982.00,1.1242
6981.00,1.1212
6980.00,1.1182
6979.00,1.1151
6978.00,1.1120
6977.00,1.1090
6976.00,1.1061
6975.00,1.1032
6974.00,1.1006
6973.00,1.0982
6972.00,1.0956
6971.00,1.0924
6970.00,1.0887
6969.00,1.0849
6968.00,1.0815
6967.00,1.0784
6966.00,1.0753
6965.00,1.0723
6964.00,1.0694
6963.00,1.0664
6962.00,1.0630
6961.00,1.0593
6960.00,1.0555
6959.00,1.0517
6958.00,1.0480
6957.00,1.0444
6956.00,1.0407
6955.00,1.0372
6954.00,1.0339
6953.00,1.0306
6952.00,1.0270
6951.00,1.0231
6950.00,1.0192
6949.00,1.0153
6948.00,1.0116
6947.00,1.0077
6946.00,1.0037
6945.00,0.9997
6944.00,0.9959
6943.00,0.9921
6942.00,0.9884
6941.00,0.9846
6940.00,0.9806
6939.00,0.9765
6938.00,0.9722
6937.00,0.9680
6936.00,0.9639
6935.00,0.9600
6934.00,0.9561
6933.00,0.9524
6932.00,0.9486
6931.00,0.9449
6930.00,0.9411
6929.00,0.9371
6928.00,0.9330
6927.00,0.9290
6926.00,0.9252
6925.00,0.9214
6924.00,0.9176
6923.00,0.9139
6922.00,0.9101
6921.00,0.9062
6920.00,0.9020
6919.00,0.8978
6918.00,0.8937
6917.00,0.8898
6916.00,0.8861
6915.00,0.8824
6914.00,0.8789
6913.00,0.8753
6912.00,0.8716
6911.00,0.8679
6910.00,0.8642
6909.00,0.8606
6908.00,0.8570
6907.00,0.8536
6906.00,0.8504
6905.00,0.8472
6904.00,0.8440
6903.00,0.8405
6902.00,0.8369
6901.00,0.8334
6900.00,0.8299
6899.00,0.8266
6898.00,0.8234
6897.00,0.8204
6896.00,0.8175
6895.00,0.8148
6894.00,0.8120
6893.00,0.8093
6892.00,0.8066
6891.00,0.8038
6890.00,0.8009
6889.00,0.7981
6888.00,0.7952
6887.00,0.7925
6886.00,0.7899
6885.00,0.7875
6884.00,0.7852
6883.00,0.7830
6882.00,0.7809
6881.00,0.7787
6880.00,0.7767
6879.00,0.7747
6878.00,0.7728
6877.00,0.7709
6876.00,0.7691
6875.00,0.7674
6874.00,0.7659
6873.00,0.7645
6872.00,0.7630
6871.00,0.7616
6870.00,0.7603
6869.00,0.7591
6868.00,0.7580
6867.00,0.7569
6866.00,0.7560
6865.00,0.7551
6864.00,0.7542
6863.00,0.7534
6862.00,0.7528
6861.00,0.7524
6860.00,0.7520
6859.00,0.7516
6858.00,0.7513
6857.00,0.7514
6856.00,0.7516
6855.00,0.7518
6854.00,0.7521
6853.00,0.7524
6852.00,0.7529
6851.00,0.7534
6850.00,0.7538
6849.00,0.7543
6848.00,0.7550
6847.00,0.7558
6846.00,0.7567
6845.00,0.7579
6844.00,0.7592
6843.00,0.7605
6842.00,0.7619
6841.00,0.7634
6840.00,0.7651
6839.00,0.7668
6838.00,0.7685
6837.00,0.7702
6836.00,0.7720
6835.00,0.7739
6834.00,0.7760
6833.00,0.7782
6832.00,0.7806
6831.00,0.7832
6830.00,0.7859
6829.00,0.7886
6828.00,0.7913
6827.00,0.7941
6826.00,0.7971
6825.00,0.8000
6824.00,0.8029
6823.00,0.8059
6822.00,0.8093
6821.00,0.8127
6820.00,0.8160
6819.00,0.8192
6818.00,0.8225
6817.00,0.8260
6816.00,0.8297
6815.00,0.8335
6814.00,0.8371
6813.00,0.8408
6812.00,0.8446
6811.00,0.8483
6810.00,0.8520
6809.00,0.8557
6808.00,0.8595
6807.00,0.8635
6806.00,0.8677
6805.00,0.8721
6804.00,0.8764
6803.00,0.8808
6802.00,0.8853
6801.00,0.8898
6800.00,0.8941
6799.00,0.8981
6798.00,0.9019
6797.00,0.9059
6796.00,0.9100
6795.00,0.9141
6794.00,0.9182
6793.00,0.9225
6792.00,0.9270
6791.00,0.9317
6790.00,0.9363
6789.00,0.9407
6788.00,0.9449
6787.00,0.9490
6786.00,0.9531
6785.00,0.9573
6784.00,0.9616
6783.00,0.9662
6782.00,0.9709
6781.00,0.9756
6780.00,0.9801
6779.00,0.9844
6778.00,0.9886
6777.00,0.9927
6776.00,0.9968
6775.00,1.0009
6774.00,1.0051
6773.00,1.0096
6772.00,1.0141
6771.00,1.0182
6770.00,1.0221
6769.00,1.0260
6768.00,1.0300
6767.00,1.0342
6766.00,1.0383
6765.00,1.0424
6764.00,1.0466
6763.00,1.0508
6762.00,1.0549
6761.00,1.0586
6760.00,1.0622
6759.00,1.0657
6758.00,1.0692
6757.00,1.0729
6756.00,1.0765
6755.00,1.0800
6754.00,1.0836
6753.00,1.0872
6752.00,1.0908
6751.00,1.0944
6750.00,1.0982
6749.00,1.1020
6748.00,1.1058
6747.00,1.1095
6746.00,1.1131
6745.00,1.1166
6744.00,1.1199
6743.00,1.1228
6742.00,1.1255
6741.00,1.1282
6740.00,1.1309
6739.00,1.1337
6738.00,1.1364
6737.00,1.1391
6736.00,1.1420
6735.00,1.1451
6734.00,1.1481
6733.00,1.1509
6732.00,1.1535
6731.00,1.1560
6730.00,1.1585
6729.00,1.1608
6728.00,1.1631
6727.00,1.1656
6726.00,1.1683
6725.00,1.1710
6724.00,1.1734
6723.00,1.1755
6722.00,1.1775
6721.00,1.1796
6720.00,1.1817
6719.00,1.1837
6718.00,1.1860
6717.00,1.1884
6716.00,1.1907
6715.00,1.1924
6714.00,1.1937
6713.00,1.1950
6712.00,1.1964
6711.00,1.1977
6710.00,1.1990
6709.00,1.2003
6708.00,1.2017
6707.00,1.2030
6706.00,1.2040
6705.00,1.2047
6704.00,1.2053
6703.00,1.2060
6702.00,1.2070
6701.00,1.2081
6700.00,1.2093
6699.00,1.2105
6698.00,1.2117
6697.00,1.2129
6696.00,1.2139
6695.00,1.2148
6694.00,1.2154
6693.00,1.2161
6692.00,1.2166
6691.00,1.2171
6690.00,1.2178
6689.00,1.2184
6688.00,1.2186
6687.00,1.2186
6686.00,1.2184
6685.00,1.2182
6684.00,1.2181
6683.00,1.2179
6682.00,1.2177
6681.00,1.2175
6680.00,1.2174
6679.00,1.2174
6678.00,1.2177
6677.00,1.2180
6676.00,1.2181
6675.00,1.2179
6674.00,1.2177
6673.00,1.2176
6672.00,1.2174
6671.00,1.2167
6670.00,1.2156
6669.00,1.2146
6668.00,1.2140
6667.00,1.2137
6666.00,1.2132
6665.00,1.2124
6664.00,1.2111
6663.00,1.2097
6662.00,1.2082
6661.00,1.2068
6660.00,1.2054
6659.00,1.2040
6658.00,1.2027
6657.00,1.2017
6656.00,1.2008
6655.00,1.1997
6654.00,1.1983
6653.00,1.1967
6652.00,1.1951
6651.00,1.1936
6650.00,1.1923
6649.00,1.1909
6648.00,1.1893
6647.00,1.1872
6646.00,1.1849
6645.00,1.1827
6644.00,1.1804
6643.00,1.1781
6642.00,1.1758
6641.00,1.1735
6640.00,1.1713
6639.00,1.1692
6638.00,1.1671
6637.00,1.1650
6636.00,1.1628
6635.00,1.1604
6634.00,1.1580
6633.00,1.1553
6632.00,1.1525
6631.00,1.1496
6630.00,1.1469
6629.00,1.1445
6628.00,1.1421
6627.00,1.1397
6626.00,1.1372
6625.00,1.1348
6624.00,1.1323
6623.00,1.1295
6622.00,1.1262
6621.00,1.1228
6620.00,1.1192
6619.00,1.1156
6618.00,1.1120
6617.00,1.1083
6616.00,1.1047
6615.00,1.1013
6614.00,1.0981
6613.00,1.0950
6612.00,1.0917
6611.00,1.0882
6610.00,1.0846
6609.00,1.0810
6608.00,1.0774
6607.00,1.0736
6606.00,1.0697
6605.00,1.0657
6604.00,1.0616
6603.00,1.0573
6602.00,1.0531
6601.00,1.0490
6600.00,1.0450
6599.00,1.0410
6598.00,1.0370
6597.00,1.0330
6596.00,1.0289
6595.00,1.0247
6594.00,1.0205
6593.00,1.0165
6592.00,1.0125
6591.00,1.0085
6590.00,1.0046
6589.00,1.0006
6588.00,0.9965
6587.00,0.9920
6586.00,0.9876
6585.00,0.9833
6584.00,0.9790
6583.00,0.9747
6582.00,0.9703
6581.00,0.9658
6580.00,0.9614
6579.00,0.9569
6578.00,0.9523
6577.00,0.9477
6576.00,0.9431
6575.00,0.9386
6574.00,0.9344
6573.00,0.9303
6572.00,0.9263
6571.00,0.9221
6570.00,0.9178
6569.00,0.9134
6568.00,0.9090
6567.00,0.9045
6566.00,0.9000
6565.00,0.8956
6564.00,0.8914
6563.00,0.8873
6562.00,0.8831
6561.00,0.8789
6560.00,0.8748
6559.00,0.8707
6558.00,0.8666
6557.00,0.8626
6556.00,0.8586
6555.00,0.8548
6554.00,0.8509
6553.00,0.8471
6552.00,0.8432
6551.00,0.8392
6550.00,0.8353
6549.00,0.8315
6548.00,0.8277
6547.00,0.8239
6546.00,0.8201
6545.00,0.8165
6544.00,0.8131
6543.00,0.8098
6542.00,0.8065
6541.00,0.8032
6540.00,0.7998
6539.00,0.7963
6538.00,0.7929
6537.00,0.7897
6536.00,0.7866
6535.00,0.7835
6534.00,0.7804
6533.00,0.7776
6532.00,0.7748
6531.00,0.7720
6530.00,0.7691
6529.00,0.7663
6528.00,0.7637
6527.00,0.7612
6526.00,0.7588
6525.00,0.7565
6524.00,0.7541
6523.00,0.7517
6522.00,0.7494
6521.00,0.7472
6520.00,0.7451
6519.00,0.7430
6518.00,0.7411
6517.00,0.7393
6516.00,0.7378
6515.00,0.7363
6514.00,0.7349
6513.00,0.7334
6512.00,0.7320
6511.00,0.7306
6510.00,0.7293
6509.00,0.7281
6508.00,0.7269
6507.00,0.7257
6506.00,0.7246
6505.00,0.7236
6504.00,0.7227
6503.00,0.7220
6502.00,0.7214
6501.00,0.7210
6500.00,0.7206
6499.00,0.7203
6498.00,0.7202
6497.00,0.7202
6496.00,0.7203
6495.00,0.7203
6494.00,0.7205
6493.00,0.7209
6492.00,0.7215
6491.00,0.7221
6490.00,0.7227
6489.00,0.7233
6488.00,0.7239
6487.00,0.7247
6486.00,0.7256
6485.00,0.7267
6484.00,0.7279
6483.00,0.7293
6482.00,0.7308
6481.00,0.7325
6480.00,0.7343
6479.00,0.7360
6478.00,0.7378
6477.00,0.7396
6476.00,0.7416
6475.00,0.7436
6474.00,0.7457
6473.00,0.7479
6472.00,0.7503
6471.00,0.7528
6470.00,0.7555
6469.00,0.7584
6468.00,0.7614
6467.00,0.7644
6466.00,0.7673
6465.00,0.7704
6464.00,0.7735
6463.00,0.7766
6462.00,0.7799
6461.00,0.7834
6460.00,0.7870
6459.00,0.7907
6458.00,0.7945
6457.00,0.7983
6456.00,0.8022
6455.00,0.8059
6454.00,0.8097
6453.00,0.8135
6452.00,0.8175
6451.00,0.8216
6450.00,0.8258
6449.00,0.8301
6448.00,0.8345
6447.00,0.8389
6446.00,0.8432
6445.00,0.8474
6444.00,0.8515
6443.00,0.8558
6442.00,0.8603
6441.00,0.8649
6440.00,0.8696
6439.00,0.8743
6438.00,0.8792
6437.00,0.8841
6436.00,0.8889
6435.00,0.8935
6434.00,0.8980
6433.00,0.9026
6432.00,0.9073
6431.00,0.9122
6430.00,0.9170
6429.00,0.9220
6428.00,0.9270
6427.00,0.9320
6426.00,0.9370
6425.00,0.9419
6424.00,0.9468
6423.00,0.9516
6422.00,0.9564
6421.00,0.9611
6420.00,0.9658
6419.00,0.9705
6418.00,0.9751
6417.00,0.9798
6416.00,0.9846
6415.00,0.9896
6414.00,0.9945
6413.00,0.9994
6412.00,1.0040
6411.00,1.0086
6410.00,1.0133
6409.00,1.0180
6408.00,1.0228
6407.00,1.0276
6406.00,1.0325
6405.00,1.0373
6404.00,1.0420
6403.00,1.0467
6402.00,1.0513
6401.00,1.0560
6400.00,1.0605
6399.00,1.0649
6398.00,1.0691
6397.00,1.0732
6396.00,1.0771
6395.00,1.0809
6394.00,1.0847
6393.00,1.0888
6392.00,1.0929
6391.00,1.0970
6390.00,1.1010
6389.00,1.1050
6388.00,1.1089
6387.00,1.1126
6386.00,1.1162
6385.00,1.1198
6384.00,1.1236
6383.00,1.1274
6382.00,1.1312
6381.00,1.1349
6380.00,1.1386
6379.00,1.1422
6378.00,1.1458
6377.00,1.1493
6376.00,1.1527
6375.00,1.1561
6374.00,1.1596
6373.00,1.1630
6372.00,1.1661
6371.00,1.1690
6370.00,1.1718
6369.00,1.1745
6368.00,1.1772
6367.00,1.1798
6366.00,1.1826
6365.00,1.1857
6364.00,1.1888
6363.00,1.1918
6362.00,1.1946
6361.00,1.1970
6360.00,1.1993
6359.00,1.2017
6358.00,1.2040
6357.00,1.2064
6356.00,1.2087
6355.00,1.2111
6354.00,1.2135
6353.00,1.2157
6352.00,1.2179
6351.00,1.2201
6350.00,1.2224
6349.00,1.2248
6348.00,1.2270
6347.00,1.2288
6346.00,1.2304
6345.00,1.2319
6344.00,1.2333
6343.00,1.2346
6342.00,1.2360
6341.00,1.2374
6340.00,1.2389
6339.00,1.2402
6338.00,1.2415
6337.00,1.2430
6336.00,1.2446
6335.00,1.2463
6334.00,1.2478
6333.00,1.2491
6332.00,1.2503
6331.00,1.2511
6330.00,1.2519
6329.00,1.2528
6328.00,1.2538
6327.00,1.2548
6326.00,1.2558
6325.00,1.2566
6324.00,1.2574
6323.00,1.2580
6322.00,1.2584
6321.00,1.2589
6320.00,1.2592
6319.00,1.2595
6318.00,1.2598
6317.00,1.2602
6316.00,1.2605
6315.00,1.2604
6314.00,1.2604
6313.00,1.2605
6312.00,1.2608
6311.00,1.2609
6310.00,1.2607
6309.00,1.2605
6308.00,1.2601
6307.00,1.2596
6306.00,1.2588
6305.00,1.2581
6304.00,1.2577
6303.00,1.2575
6302.00,1.2572
6301.00,1.2568
6300.00,1.2564
6299.00,1.2558
6298.00,1.2551
6297.00,1.2543
6296.00,1.2535
6295.00,1.2527
6294.00,1.2519
6293.00,1.2509
6292.00,1.2495
6291.00,1.2480
6290.00,1.2464
6289.00,1.2449
6288.00,1.2435
6287.00,1.2420
6286.00,1.2406
6285.00,1.2394
6284.00,1.2385
6283.00,1.2374
6282.00,1.2361
6281.00,1.2345
6280.00,1.2329
6279.00,1.2312
6278.00,1.2293
6277.00,1.2272
6276.00,1.2250
6275.00,1.2229
6274.00,1.2208
6273.00,1.2190
6272.00,1.2173
6271.00,1.2156
6270.00,1.2138
6269.00,1.2118
6268.00,1.2095
6267.00,1.2069
6266.00,1.2040
6265.00,1.2009
6264.00,1.1978
6263.00,1.1950
6262.00,1.1923
6261.00,1.1898
6260.00,1.1871
6259.00,1.1844
6258.00,1.1817
6257.00,1.1791
6256.00,1.1763
6255.00,1.1734
6254.00,1.1705
6253.00,1.1675
6252.00,1.1644
6251.00,1.1612
6250.00,1.1578
6249.00,1.1544
6248.00,1.1509
6247.00,1.1473
6246.00,1.1436
6245.00,1.1401
6244.00,1.1367
6243.00,1.1332
6242.00,1.1297
6241.00,1.1260
6240.00,1.1222
6239.00,1.1183
6238.00,1.1144
6237.00,1.1105
6236.00,1.1068
6235.00,1.1031
6234.00,1.0994
6233.00,1.0955
6232.00,1.0913
6231.00,1.0869
6230.00,1.0824
6229.00,1.0779
6228.00,1.0735
6227.00,1.0693
6226.00,1.0652
6225.00,1.0611
6224.00,1.0567
6223.00,1.0521
6222.00,1.0474
6221.00,1.0427
6220.00,1.0381
6219.00,1.0337
6218.00,1.0296
6217.00,1.0255
6216.00,1.0214
6215.00,1.0170
6214.00,1.0123
6213.00,1.0076
6212.00,1.0027
6211.00,0.9979
6210.00,0.9931
6209.00,0.9885
6208.00,0.9840
6207.00,0.9793
6206.00,0.9744
6205.00,0.9695
6204.00,0.9647
6203.00,0.9600
6202.00,0.9553
6201.00,0.9507
6200.00,0.9462
6199.00,0.9416
6198.00,0.9370
6197.00,0.9323
6196.00,0.9276
6195.00,0.9228
6194.00,0.9182
6193.00,0.9136
6192.00,0.9090
6191.00,0.9043
6190.00,0.8997
6189.00,0.8950
6188.00,0.8904
6187.00,0.8857
6186.00,0.8812
6185.00,0.8768
6184.00,0.8725
6183.00,0.8682
6182.00,0.8641
6181.00,0.8600
6180.00,0.8560
6179.00,0.8519
6178.00,0.8479
6177.00,0.8439
6176.00,0.8399
6175.00,0.8358
6174.00,0.8317
6173.00,0.8277
6172.00,0.8238
6171.00,0.8200
6170.00,0.8162
6169.00,0.8125
6168.00,0.8090
6167.00,0.8055
6166.00,0.8021
6165.00,0.7987
6164.00,0.7955
6163.00,0.7922
6162.00,0.7890
6161.00,0.7860
6160.00,0.7830
6159.00,0.7801
6158.00,0.7772
6157.00,0.7743
6156.00,0.7715
6155.00,0.7689
6154.00,0.7664
6153.00,0.7640
6152.00,0.7618
6151.00,0.7596
6150.00,0.7574
6149.00,0.7553
6148.00,0.7531
6147.00,0.7510
6146.00,0.7490
6145.00,0.7473
6144.00,0.7457
6143.00,0.7442
6142.00,0.7430
6141.00,0.7419
6140.00,0.7408
6139.00,0.7398
6138.00,0.7389
6137.00,0.7382
6136.00,0.7376
6135.00,0.7370
6134.00,0.7365
6133.00,0.7362
6132.00,0.7361
6131.00,0.7361
6130.00,0.7361
6129.00,0.7364
6128.00,0.7367
6127.00,0.7372
6126.00,0.7379
6125.00,0.7386
6124.00,0.7395
6123.00,0.7405
6122.00,0.7417
6121.00,0.7430
6120.00,0.7444
6119.00,0.7459
6118.00,0.7476
6117.00,0.7494
6116.00,0.7512
6115.00,0.7532
6114.00,0.7553
6113.00,0.7575
6112.00,0.7598
6111.00,0.7622
6110.00,0.7646
6109.00,0.7673
6108.00,0.7700
6107.00,0.7729
6106.00,0.7760
6105.00,0.7791
6104.00,0.7823
6103.00,0.7855
6102.00,0.7887
6101.00,0.7920
6100.00,0.7956
6099.00,0.7994
6098.00,0.8033
6097.00,0.8074
6096.00,0.8115
6095.00,0.8155
6094.00,0.8195
6093.00,0.8236
6092.00,0.8277
6091.00,0.8320
6090.00,0.8365
6089.00,0.8411
6088.00,0.8457
6087.00,0.8503
6086.00,0.8549
6085.00,0.8595
6084.00,0.8643
6083.00,0.8691
6082.00,0.8739
6081.00,0.8787
6080.00,0.8836
6079.00,0.8885
6078.00,0.8934
6077.00,0.8982
6076.00,0.9031
6075.00,0.9080
6074.00,0.9131
6073.00,0.9182
6072.00,0.9234
6071.00,0.9286
6070.00,0.9337
6069.00,0.9387
6068.00,0.9439
6067.00,0.9490
6066.00,0.9542
6065.00,0.9595
6064.00,0.9649
6063.00,0.9702
6062.00,0.9754
6061.00,0.9805
6060.00,0.9854
6059.00,0.9903
6058.00,0.9954
6057.00,1.0006
6056.00,1.0059
6055.00,1.0112
6054.00,1.0164
6053.00,1.0214
6052.00,1.0262
6051.00,1.0309
6050.00,1.0355
6049.00,1.0402
6048.00,1.0451
6047.00,1.0500
6046.00,1.0549
6045.00,1.0598
6044.00,1.0646
6043.00,1.0691
6042.00,1.0733
6041.00,1.0777
6040.00,1.0822
6039.00,1.0869
6038.00,1.0914
6037.00,1.0957
6036.00,1.1000
6035.00,1.1044
6034.00,1.1086
6033.00,1.1126
6032.00,1.1165
6031.00,1.1206
6030.00,1.1247
6029.00,1.1288
6028.00,1.1327
6027.00,1.1367
6026.00,1.1407
6025.00,1.1449
6024.00,1.1488
6023.00,1.1524
6022.00,1.1557
6021.00,1.1589
6020.00,1.1620
6019.00,1.1650
6018.00,1.1681
6017.00,1.1714
6016.00,1.1746
6015.00,1.1777
6014.00,1.1807
6013.00,1.1836
6012.00,1.1864
6011.00,1.1890
6010.00,1.1916
6009.00,1.1943
6008.00,1.1970
6007.00,1.1996
6006.00,1.2020
6005.00,1.2043
6004.00,1.2065
6003.00,1.2086
6002.00,1.2107
6001.00,1.2128
6000.00,1.2150
5999.00,1.2172
5998.00,1.2193
5997.00,1.2212
5996.00,1.2229
5995.00,1.2243
5994.00,1.2255
5993.00,1.2267
5992.00,1.2281
5991.00,1.2297
5990.00,1.2314
5989.00,1.2331
5988.00,1.2347
5987.00,1.2361
5986.00,1.2373
5985.00,1.2384
5984.00,1.2394
5983.00,1.2404
5982.00,1.2416
5981.00,1.2427
5980.00,1.2438
5979.00,1.2449
5978.00,1.2462
5977.00,1.2478
5976.00,1.2493
5975.00,1.2509
5974.00,1.2523
5973.00,1.2535
5972.00,1.2546
5971.00,1.2556
5970.00,1.2567
5969.00,1.2580
5968.00,1.2595
5967.00,1.2611
5966.00,1.2628
5965.00,1.2647
5964.00,1.2665
5963.00,1.2683
5962.00,1.2700
5961.00,1.2715
5960.00,1.2729
5959.00,1.2742
5958.00,1.2756
5957.00,1.2774
5956.00,1.2794
5955.00,1.2815
5954.00,1.2835
5953.00,1.2852
5952.00,1.2865
5951.00,1.2873
5950.00,1.2878
5949.00,1.2882
5948.00,1.2889
5947.00,1.2897
5946.00,1.2907
5945.00,1.2915
5944.00,1.2922
5943.00,1.2926
5942.00,1.2929
5941.00,1.2930
5940.00,1.2930
5939.00,1.2929
5938.00,1.2930
5937.00,1.2930
5936.00,1.2930
5935.00,1.2930
5934.00,1.2928
5933.00,1.2926
5932.00,1.2921
5931.00,1.2915
5930.00,1.2907
5929.00,1.2899
5928.00,1.2890
5927.00,1.2882
5926.00,1.2874
5925.00,1.2863
5924.00,1.2850
5923.00,1.2834
5922.00,1.2816
5921.00,1.2797
5920.00,1.2781
5919.00,1.2766
5918.00,1.2751
5917.00,1.2736
5916.00,1.2718
5915.00,1.2699
5914.00,1.2678
5913.00,1.2657
5912.00,1.2635
5911.00,1.2616
5910.00,1.2597
5909.00,1.2576
5908.00,1.2553
5907.00,1.2528
5906.00,1.2504
5905.00,1.2478
5904.00,1.2451
5903.00,1.2423
5902.00,1.2397
5901.00,1.2371
5900.00,1.2344
5899.00,1.2316
5898.00,1.2289
5897.00,1.2263
5896.00,1.2236
5895.00,1.2206
5894.00,1.2174
5893.00,1.2142
5892.00,1.2109
5891.00,1.2076
5890.00,1.2043
5889.00,1.2011
5888.00,1.1979
5887.00,1.1946
5886.00,1.1914
5885.00,1.1879
5884.00,1.1843
5883.00,1.1806
5882.00,1.1767
5881.00,1.1727
5880.00,1.1686
5879.00,1.1644
5878.00,1.1602
5877.00,1.1560
5876.00,1.1519
5875.00,1.1477
5874.00,1.1437
5873.00,1.1396
5872.00,1.1355
5871.00,1.1312
5870.00,1.1268
5869.00,1.1225
5868.00,1.1181
5867.00,1.1136
5866.00,1.1091
5865.00,1.1046
5864.00,1.1000
5863.00,1.0954
5862.00,1.0908
5861.00,1.0862
5860.00,1.0817
5859.00,1.0771
5858.00,1.0723
5857.00,1.0673
5856.00,1.0623
5855.00,1.0573
5854.00,1.0522
5853.00,1.0472
5852.00,1.0423
5851.00,1.0375
5850.00,1.0327
5849.00,1.0277
5848.00,1.0226
5847.00,1.0175
5846.00,1.0123
5845.00,1.0070
5844.00,1.0019
5843.00,0.9968
5842.00,0.9918
5841.00,0.9869
5840.00,0.9819
5839.00,0.9768
5838.00,0.9716
5837.00,0.9663
5836.00,0.9612
5835.00,0.9560
5834.00,0.9510
5833.00,0.9460
5832.00,0.9411
5831.00,0.9361
5830.00,0.9310
5829.00,0.9258
5828.00,0.9206
5827.00,0.9154
5826.00,0.9104
5825.00,0.9054
5824.00,0.9006
5823.00,0.8958
5822.00,0.8910
5821.00,0.8863
5820.00,0.8815
5819.00,0.8767
5818.00,0.8720
5817.00,0.8672
5816.00,0.8625
5815.00,0.8579
5814.00,0.8533
5813.00,0.8487
5812.00,0.8443
5811.00,0.8398
5810.00,0.8355
5809.00,0.8312
5808.00,0.8270
5807.00,0.8229
5806.00,0.8188
5805.00,0.8148
5804.00,0.8109
5803.00,0.8070
5802.00,0.8032
5801.00,0.7995
5800.00,0.7958
5799.00,0.7921
5798.00,0.7885
5797.00,0.7849
5796.00,0.7814
5795.00,0.7780
5794.00,0.7749
5793.00,0.7718
5792.00,0.7689
5791.00,0.7659
5790.00,0.7631
5789.00,0.7603
5788.00,0.7576
5787.00,0.7550
5786.00,0.7527
5785.00,0.7505
5784.00,0.7484
5783.00,0.7463
5782.00,0.7443
5781.00,0.7425
5780.00,0.7408
5779.00,0.7393
5778.00,0.7379
5777.00,0.7368
5776.00,0.7357
5775.00,0.7347
5774.00,0.7339
5773.00,0.7333
5772.00,0.7328
5771.00,0.7324
5770.00,0.7322
5769.00,0.7321
5768.00,0.7322
5767.00,0.7325
5766.00,0.7329
5765.00,0.7335
5764.00,0.7342
5763.00,0.7351
5762.00,0.7361
5761.00,0.7374
5760.00,0.7388
5759.00,0.7403
5758.00,0.7420
5757.00,0.7439
5756.00,0.7459
5755.00,0.7481
5754.00,0.7503
5753.00,0.7527
5752.00,0.7552
5751.00,0.7578
5750.00,0.7606
5749.00,0.7635
5748.00,0.7666
5747.00,0.7697
5746.00,0.7729
5745.00,0.7763
5744.00,0.7797
5743.00,0.7833
5742.00,0.7871
5741.00,0.7910
5740.00,0.7950
5739.00,0.7992
5738.00,0.8033
5737.00,0.8076
5736.00,0.8119
5735.00,0.8163
5734.00,0.8206
5733.00,0.8251
5732.00,0.8296
5731.00,0.8341
5730.00,0.8388
5729.00,0.8436
5728.00,0.8485
5727.00,0.8535
5726.00,0.8585
5725.00,0.8635
5724.00,0.8685
5723.00,0.8736
5722.00,0.8787
5721.00,0.8839
5720.00,0.8891
5719.00,0.8944
5718.00,0.8998
5717.00,0.9052
5716.00,0.9107
5715.00,0.9160
5714.00,0.9213
5713.00,0.9267
5712.00,0.9321
5711.00,0.9376
5710.00,0.9432
5709.00,0.9488
5708.00,0.9543
5707.00,0.9598
5706.00,0.9652
5705.00,0.9706
5704.00,0.9760
5703.00,0.9815
5702.00,0.9870
5701.00,0.9926
5700.00,0.9980
5699.00,1.0034
5698.00,1.0087
5697.00,1.0139
5696.00,1.0191
5695.00,1.0241
5694.00,1.0291
5693.00,1.0341
5692.00,1.0391
5691.00,1.0442
5690.00,1.0493
5689.00,1.0546
5688.00,1.0597
5687.00,1.0647
5686.00,1.0694
5685.00,1.0740
5684.00,1.0784
5683.00,1.0826
5682.00,1.0869
5681.00,1.0912
5680.00,1.0955
5679.00,1.1000
5678.00,1.1044
5677.00,1.1090
5676.00,1.1135
5675.00,1.1179
5674.00,1.1222
