,cyclohexanone_3um,
Wavenumbers [1/cm],Absorbance,
4500.000,0.067,
4499.000,0.067,
4498.000,0.067,
4497.000,0.067,
4496.000,0.067,
4495.000,0.067,
4494.000,0.067,
4493.000,0.067,
4492.000,0.0671,
4491.000,0.0671,
4490.000,0.0671,
4489.000,0.0671,
4488.000,0.0672,
4487.000,0.0672,
4486.000,0.0673,
4485.000,0.0673,
4484.000,0.0673,
4483.000,0.0673,
4482.000,0.0673,
4481.000,0.0673,
4480.000,0.0673,
4479.000,0.0673,
4478.000,0.0674,
4477.000,0.0674,
4476.000,0.0674,
4475.000,0.0675,
4474.000,0.0675,
4473.000,0.0676,
4472.000,0.0676,
4471.000,0.0676,
4470.000,0.0677,
4469.000,0.0677,
4468.000,0.0677,
4467.000,0.0678,
4466.000,0.0678,
4465.000,0.0678,
4464.000,0.0678,
4463.000,0.0679,
4462.000,0.0679,
4461.000,0.068,
4460.000,0.068,
4459.000,0.0681,
4458.000,0.0681,
4457.000,0.0681,
4456.000,0.0682,
4455.000,0.0682,
4454.000,0.0683,
4453.000,0.0683,
4452.000,0.0684,
4451.000,0.0685,
4450.000,0.0685,
4449.000,0.0686,
4448.000,0.0687,
4447.000,0.0687,
4446.000,0.0688,
4445.000,0.0689,
4444.000,0.069,
4443.000,0.0691,
4442.000,0.0692,
4441.000,0.0692,
4440.000,0.0693,
4439.000,0.0694,
4438.000,0.0695,
4437.000,0.0696,
4436.000,0.0697,
4435.000,0.0698,
4434.000,0.0699,
4433.000,0.0701,
4432.000,0.0702,
4431.000,0.0704,
4430.000,0.0705,
4429.000,0.0707,
4428.000,0.0709,
4427.000,0.071,
4426.000,0.0712,
4425.000,0.0714,
4424.000,0.0715,
4423.000,0.0717,
4422.000,0.0719,
4421.000,0.0721,
4420.000,0.0723,
4419.000,0.0724,
4418.000,0.0727,
4417.000,0.0729,
4416.000,0.0731,
4415.000,0.0733,
4414.000,0.0736,
4413.000,0.0738,
4412.000,0.0741,
4411.000,0.0743,
4410.000,0.0746,
4409.000,0.0749,
4408.000,0.0752,
4407.000,0.0754,
4406.000,0.0758,
4405.000,0.0761,
4404.000,0.0764,
4403.000,0.0767,
4402.000,0.0771,
4401.000,0.0774,
4400.000,0.0777,
4399.000,0.0781,
4398.000,0.0785,
4397.000,0.0789,
4396.000,0.0793,
4395.000,0.0797,
4394.000,0.0801,
4393.000,0.0805,
4392.000,0.081,
4391.000,0.0814,
4390.000,0.0819,
4389.000,0.0823,
4388.000,0.0828,
4387.000,0.0833,
4386.000,0.0837,
4385.000,0.0842,
4384.000,0.0846,
4383.000,0.0851,
4382.000,0.0856,
4381.000,0.086,
4380.000,0.0865,
4379.000,0.087,
4378.000,0.0875,
4377.000,0.0879,
4376.000,0.0883,
4375.000,0.0887,
4374.000,0.0891,
4373.000,0.0894,
4372.000,0.0897,
4371.000,0.09,
4370.000,0.0903,
4369.000,0.0905,
4368.000,0.0906,
4367.000,0.0907,
4366.000,0.0907,
4365.000,0.0907,
4364.000,0.0906,
4363.000,0.0905,
4362.000,0.0904,
4361.000,0.0902,
4360.000,0.0899,
4359.000,0.0897,
4358.000,0.0894,
4357.000,0.0891,
4356.000,0.0888,
4355.000,0.0886,
4354.000,0.0883,
4353.000,0.088,
4352.000,0.0878,
4351.000,0.0876,
4350.000,0.0874,
4349.000,0.0872,
4348.000,0.087,
4347.000,0.0868,
4346.000,0.0865,
4345.000,0.0863,
4344.000,0.0861,
4343.000,0.0858,
4342.000,0.0855,
4341.000,0.0852,
4340.000,0.0848,
4339.000,0.0845,
4338.000,0.0841,
4337.000,0.0837,
4336.000,0.0833,
4335.000,0.0829,
4334.000,0.0826,
4333.000,0.0823,
4332.000,0.082,
4331.000,0.0817,
4330.000,0.0815,
4329.000,0.0813,
4328.000,0.0812,
4327.000,0.0811,
4326.000,0.081,
4325.000,0.0809,
4324.000,0.0809,
4323.000,0.0809,
4322.000,0.0809,
4321.000,0.081,
4320.000,0.0811,
4319.000,0.0812,
4318.000,0.0813,
4317.000,0.0814,
4316.000,0.0815,
4315.000,0.0816,
4314.000,0.0817,
4313.000,0.0818,
4312.000,0.0819,
4311.000,0.082,
4310.000,0.0821,
4309.000,0.0822,
4308.000,0.0822,
4307.000,0.0823,
4306.000,0.0823,
4305.000,0.0824,
4304.000,0.0825,
4303.000,0.0825,
4302.000,0.0826,
4301.000,0.0827,
4300.000,0.0829,
4299.000,0.083,
4298.000,0.0832,
4297.000,0.0833,
4296.000,0.0835,
4295.000,0.0837,
4294.000,0.084,
4293.000,0.0842,
4292.000,0.0845,
4291.000,0.0848,
4290.000,0.0851,
4289.000,0.0854,
4288.000,0.0857,
4287.000,0.086,
4286.000,0.0863,
4285.000,0.0866,
4284.000,0.0869,
4283.000,0.0871,
4282.000,0.0872,
4281.000,0.0874,
4280.000,0.0874,
4279.000,0.0875,
4278.000,0.0875,
4277.000,0.0874,
4276.000,0.0874,
4275.000,0.0873,
4274.000,0.0872,
4273.000,0.0871,
4272.000,0.0869,
4271.000,0.0868,
4270.000,0.0866,
4269.000,0.0864,
4268.000,0.0862,
4267.000,0.086,
4266.000,0.0858,
4265.000,0.0856,
4264.000,0.0853,
4263.000,0.0851,
4262.000,0.0848,
4261.000,0.0845,
4260.000,0.0842,
4259.000,0.0839,
4258.000,0.0836,
4257.000,0.0833,
4256.000,0.083,
4255.000,0.0827,
4254.000,0.0824,
4253.000,0.0822,
4252.000,0.0819,
4251.000,0.0817,
4250.000,0.0815,
4249.000,0.0813,
4248.000,0.081,
4247.000,0.0808,
4246.000,0.0806,
4245.000,0.0805,
4244.000,0.0803,
4243.000,0.0802,
4242.000,0.0801,
4241.000,0.08,
4240.000,0.08,
4239.000,0.0799,
4238.000,0.0799,
4237.000,0.0799,
4236.000,0.0799,
4235.000,0.08,
4234.000,0.0801,
4233.000,0.0801,
4232.000,0.0803,
4231.000,0.0804,
4230.000,0.0805,
4229.000,0.0807,
4228.000,0.0809,
4227.000,0.0811,
4226.000,0.0813,
4225.000,0.0814,
4224.000,0.0816,
4223.000,0.0818,
4222.000,0.082,
4221.000,0.0821,
4220.000,0.0823,
4219.000,0.0824,
4218.000,0.0825,
4217.000,0.0825,
4216.000,0.0826,
4215.000,0.0826,
4214.000,0.0826,
4213.000,0.0825,
4212.000,0.0824,
4211.000,0.0824,
4210.000,0.0823,
4209.000,0.0822,
4208.000,0.082,
4207.000,0.0819,
4206.000,0.0818,
4205.000,0.0817,
4204.000,0.0816,
4203.000,0.0815,
4202.000,0.0814,
4201.000,0.0813,
4200.000,0.0812,
4199.000,0.0812,
4198.000,0.0811,
4197.000,0.0811,
4196.000,0.0811,
4195.000,0.0811,
4194.000,0.0811,
4193.000,0.0811,
4192.000,0.0812,
4191.000,0.0812,
4190.000,0.0813,
4189.000,0.0814,
4188.000,0.0815,
4187.000,0.0816,
4186.000,0.0817,
4185.000,0.0818,
4184.000,0.0818,
4183.000,0.0819,
4182.000,0.0819,
4181.000,0.082,
4180.000,0.0821,
4179.000,0.0821,
4178.000,0.0821,
4177.000,0.0821,
4176.000,0.0822,
4175.000,0.0822,
4174.000,0.0822,
4173.000,0.0822,
4172.000,0.0823,
4171.000,0.0823,
4170.000,0.0823,
4169.000,0.0823,
4168.000,0.0824,
4167.000,0.0824,
4166.000,0.0824,
4165.000,0.0824,
4164.000,0.0824,
4163.000,0.0824,
4162.000,0.0824,
4161.000,0.0824,
4160.000,0.0824,
4159.000,0.0825,
4158.000,0.0825,
4157.000,0.0825,
4156.000,0.0825,
4155.000,0.0826,
4154.000,0.0826,
4153.000,0.0826,
4152.000,0.0827,
4151.000,0.0827,
4150.000,0.0827,
4149.000,0.0826,
4148.000,0.0826,
4147.000,0.0826,
4146.000,0.0826,
4145.000,0.0825,
4144.000,0.0825,
4143.000,0.0824,
4142.000,0.0823,
4141.000,0.0822,
4140.000,0.0822,
4139.000,0.0821,
4138.000,0.082,
4137.000,0.0819,
4136.000,0.0819,
4135.000,0.0818,
4134.000,0.0818,
4133.000,0.0817,
4132.000,0.0817,
4131.000,0.0817,
4130.000,0.0817,
4129.000,0.0817,
4128.000,0.0816,
4127.000,0.0816,
4126.000,0.0816,
4125.000,0.0815,
4124.000,0.0815,
4123.000,0.0814,
4122.000,0.0813,
4121.000,0.0812,
4120.000,0.0812,
4119.000,0.0811,
4118.000,0.081,
4117.000,0.0809,
4116.000,0.0808,
4115.000,0.0807,
4114.000,0.0807,
4113.000,0.0806,
4112.000,0.0805,
4111.000,0.0805,
4110.000,0.0804,
4109.000,0.0804,
4108.000,0.0803,
4107.000,0.0802,
4106.000,0.0802,
4105.000,0.0801,
4104.000,0.08,
4103.000,0.0799,
4102.000,0.0799,
4101.000,0.0798,
4100.000,0.0797,
4099.000,0.0796,
4098.000,0.0795,
4097.000,0.0794,
4096.000,0.0794,
4095.000,0.0793,
4094.000,0.0793,
4093.000,0.0793,
4092.000,0.0793,
4091.000,0.0793,
4090.000,0.0793,
4089.000,0.0793,
4088.000,0.0793,
4087.000,0.0793,
4086.000,0.0793,
4085.000,0.0793,
4084.000,0.0793,
4083.000,0.0793,
4082.000,0.0793,
4081.000,0.0792,
4080.000,0.0792,
4079.000,0.0791,
4078.000,0.079,
4077.000,0.079,
4076.000,0.0789,
4075.000,0.0788,
4074.000,0.0787,
4073.000,0.0786,
4072.000,0.0785,
4071.000,0.0784,
4070.000,0.0783,
4069.000,0.0781,
4068.000,0.078,
4067.000,0.0779,
4066.000,0.0778,
4065.000,0.0777,
4064.000,0.0776,
4063.000,0.0776,
4062.000,0.0776,
4061.000,0.0775,
4060.000,0.0776,
4059.000,0.0776,
4058.000,0.0776,
4057.000,0.0777,
4056.000,0.0777,
4055.000,0.0778,
4054.000,0.0779,
4053.000,0.078,
4052.000,0.0781,
4051.000,0.0782,
4050.000,0.0783,
4049.000,0.0784,
4048.000,0.0785,
4047.000,0.0786,
4046.000,0.0787,
4045.000,0.0788,
4044.000,0.0788,
4043.000,0.0789,
4042.000,0.0789,
4041.000,0.079,
4040.000,0.0789,
4039.000,0.0789,
4038.000,0.0789,
4037.000,0.0788,
4036.000,0.0788,
4035.000,0.0787,
4034.000,0.0786,
4033.000,0.0785,
4032.000,0.0784,
4031.000,0.0784,
4030.000,0.0783,
4029.000,0.0783,
4028.000,0.0783,
4027.000,0.0783,
4026.000,0.0783,
4025.000,0.0783,
4024.000,0.0784,
4023.000,0.0785,
4022.000,0.0785,
4021.000,0.0786,
4020.000,0.0787,
4019.000,0.0788,
4018.000,0.0789,
4017.000,0.079,
4016.000,0.079,
4015.000,0.0791,
4014.000,0.0791,
4013.000,0.0791,
4012.000,0.0791,
4011.000,0.0791,
4010.000,0.079,
4009.000,0.0789,
4008.000,0.0789,
4007.000,0.0788,
4006.000,0.0787,
4005.000,0.0786,
4004.000,0.0785,
4003.000,0.0784,
4002.000,0.0782,
4001.000,0.0781,
4000.000,0.078,
3999.000,0.0779,
3998.000,0.0778,
3997.000,0.0777,
3996.000,0.0775,
3995.000,0.0774,
3994.000,0.0774,
3993.000,0.0773,
3992.000,0.0772,
3991.000,0.0772,
3990.000,0.0772,
3989.000,0.0772,
3988.000,0.0772,
3987.000,0.0772,
3986.000,0.0773,
3985.000,0.0774,
3984.000,0.0775,
3983.000,0.0776,
3982.000,0.0777,
3981.000,0.0779,
3980.000,0.078,
3979.000,0.0781,
3978.000,0.0782,
3977.000,0.0784,
3976.000,0.0785,
3975.000,0.0786,
3974.000,0.0787,
3973.000,0.0788,
3972.000,0.0789,
3971.000,0.079,
3970.000,0.0791,
3969.000,0.0792,
3968.000,0.0793,
3967.000,0.0794,
3966.000,0.0795,
3965.000,0.0797,
3964.000,0.0798,
3963.000,0.08,
3962.000,0.0802,
3961.000,0.0804,
3960.000,0.0806,
3959.000,0.0809,
3958.000,0.0811,
3957.000,0.0813,
3956.000,0.0816,
3955.000,0.0818,
3954.000,0.082,
3953.000,0.0822,
3952.000,0.0823,
3951.000,0.0824,
3950.000,0.0825,
3949.000,0.0825,
3948.000,0.0824,
3947.000,0.0824,
3946.000,0.0822,
3945.000,0.0821,
3944.000,0.0819,
3943.000,0.0817,
3942.000,0.0816,
3941.000,0.0814,
3940.000,0.0812,
3939.000,0.081,
3938.000,0.0808,
3937.000,0.0806,
3936.000,0.0803,
3935.000,0.0801,
3934.000,0.0798,
3933.000,0.0796,
3932.000,0.0793,
3931.000,0.0791,
3930.000,0.0788,
3929.000,0.0786,
3928.000,0.0783,
3927.000,0.0781,
3926.000,0.0778,
3925.000,0.0776,
3924.000,0.0773,
3923.000,0.0771,
3922.000,0.0768,
3921.000,0.0765,
3920.000,0.0762,
3919.000,0.076,
3918.000,0.0757,
3917.000,0.0754,
3916.000,0.0752,
3915.000,0.075,
3914.000,0.0748,
3913.000,0.0746,
3912.000,0.0744,
3911.000,0.0743,
3910.000,0.0742,
3909.000,0.0741,
3908.000,0.074,
3907.000,0.0738,
3906.000,0.0737,
3905.000,0.0735,
3904.000,0.0733,
3903.000,0.0731,
3902.000,0.0729,
3901.000,0.0727,
3900.000,0.0726,
3899.000,0.0725,
3898.000,0.0726,
3897.000,0.0726,
3896.000,0.0727,
3895.000,0.0727,
3894.000,0.0728,
3893.000,0.0728,
3892.000,0.0729,
3891.000,0.073,
3890.000,0.0731,
3889.000,0.0732,
3888.000,0.0732,
3887.000,0.0732,
3886.000,0.0733,
3885.000,0.0734,
3884.000,0.0735,
3883.000,0.0734,
3882.000,0.0733,
3881.000,0.0732,
3880.000,0.0733,
3879.000,0.0733,
3878.000,0.0734,
3877.000,0.0734,
3876.000,0.0733,
3875.000,0.0733,
3874.000,0.0733,
3873.000,0.0734,
3872.000,0.0734,
3871.000,0.0734,
3870.000,0.0733,
3869.000,0.0733,
3868.000,0.0733,
3867.000,0.0733,
3866.000,0.0731,
3865.000,0.073,
3864.000,0.073,
3863.000,0.073,
3862.000,0.073,
3861.000,0.0731,
3860.000,0.0731,
3859.000,0.0732,
3858.000,0.0733,
3857.000,0.0735,
3856.000,0.0739,
3855.000,0.0743,
3854.000,0.0746,
3853.000,0.0745,
3852.000,0.0743,
3851.000,0.0742,
3850.000,0.0741,
3849.000,0.0738,
3848.000,0.0735,
3847.000,0.0731,
3846.000,0.0727,
3845.000,0.0724,
3844.000,0.0722,
3843.000,0.0721,
3842.000,0.072,
3841.000,0.072,
3840.000,0.072,
3839.000,0.072,
3838.000,0.072,
3837.000,0.072,
3836.000,0.072,
3835.000,0.0719,
3834.000,0.0719,
3833.000,0.0718,
3832.000,0.0717,
3831.000,0.0716,
3830.000,0.0716,
3829.000,0.0716,
3828.000,0.0716,
3827.000,0.0717,
3826.000,0.0718,
3825.000,0.0719,
3824.000,0.072,
3823.000,0.072,
3822.000,0.072,
3821.000,0.0721,
3820.000,0.0723,
3819.000,0.0725,
3818.000,0.0726,
3817.000,0.0727,
3816.000,0.0728,
3815.000,0.073,
3814.000,0.0731,
3813.000,0.0731,
3812.000,0.0731,
3811.000,0.0731,
3810.000,0.0731,
3809.000,0.0731,
3808.000,0.0731,
3807.000,0.0731,
3806.000,0.0732,
3805.000,0.0734,
3804.000,0.0734,
3803.000,0.0735,
3802.000,0.0735,
3801.000,0.0736,
3800.000,0.0736,
3799.000,0.0736,
3798.000,0.0736,
3797.000,0.0736,
3796.000,0.0736,
3795.000,0.0737,
3794.000,0.0738,
3793.000,0.0739,
3792.000,0.074,
3791.000,0.0741,
3790.000,0.0743,
3789.000,0.0744,
3788.000,0.0744,
3787.000,0.0745,
3786.000,0.0745,
3785.000,0.0746,
3784.000,0.0746,
3783.000,0.0747,
3782.000,0.0747,
3781.000,0.0747,
3780.000,0.0747,
3779.000,0.0747,
3778.000,0.0748,
3777.000,0.0748,
3776.000,0.0748,
3775.000,0.0748,
3774.000,0.0748,
3773.000,0.0748,
3772.000,0.0749,
3771.000,0.0748,
3770.000,0.0748,
3769.000,0.0748,
3768.000,0.0748,
3767.000,0.0747,
3766.000,0.0746,
3765.000,0.0746,
3764.000,0.0746,
3763.000,0.0745,
3762.000,0.0744,
3761.000,0.0743,
3760.000,0.0742,
3759.000,0.0741,
3758.000,0.0739,
3757.000,0.0738,
3756.000,0.0737,
3755.000,0.0737,
3754.000,0.0737,
3753.000,0.0737,
3752.000,0.0737,
3751.000,0.0736,
3750.000,0.0735,
3749.000,0.0732,
3748.000,0.0731,
3747.000,0.0729,
3746.000,0.0727,
3745.000,0.0725,
3744.000,0.0724,
3743.000,0.0723,
3742.000,0.0722,
3741.000,0.0721,
3740.000,0.0719,
3739.000,0.0718,
3738.000,0.0716,
3737.000,0.0714,
3736.000,0.0713,
3735.000,0.0713,
3734.000,0.0715,
3733.000,0.0717,
3732.000,0.0718,
3731.000,0.072,
3730.000,0.0722,
3729.000,0.0722,
3728.000,0.0722,
3727.000,0.0722,
3726.000,0.0721,
3725.000,0.0721,
3724.000,0.0721,
3723.000,0.072,
3722.000,0.0721,
3721.000,0.0721,
3720.000,0.0722,
3719.000,0.0723,
3718.000,0.0723,
3717.000,0.0724,
3716.000,0.0724,
3715.000,0.0724,
3714.000,0.0723,
3713.000,0.0723,
3712.000,0.0722,
3711.000,0.0721,
3710.000,0.0721,
3709.000,0.0722,
3708.000,0.0722,
3707.000,0.0723,
3706.000,0.0724,
3705.000,0.0724,
3704.000,0.0725,
3703.000,0.0726,
3702.000,0.0727,
3701.000,0.0728,
3700.000,0.0729,
3699.000,0.073,
3698.000,0.0731,
3697.000,0.0732,
3696.000,0.0733,
3695.000,0.0734,
3694.000,0.0734,
3693.000,0.0735,
3692.000,0.0736,
3691.000,0.0738,
3690.000,0.0741,
3689.000,0.0743,
3688.000,0.0744,
3687.000,0.0745,
3686.000,0.0744,
3685.000,0.0743,
3684.000,0.0742,
3683.000,0.0741,
3682.000,0.0739,
3681.000,0.0738,
3680.000,0.0737,
3679.000,0.0738,
3678.000,0.0739,
3677.000,0.074,
3676.000,0.074,
3675.000,0.074,
3674.000,0.0741,
3673.000,0.0742,
3672.000,0.0742,
3671.000,0.0742,
3670.000,0.0743,
3669.000,0.0744,
3668.000,0.0746,
3667.000,0.0747,
3666.000,0.0748,
3665.000,0.0749,
3664.000,0.075,
3663.000,0.0752,
3662.000,0.0753,
3661.000,0.0755,
3660.000,0.0757,
3659.000,0.0759,
3658.000,0.0761,
3657.000,0.0762,
3656.000,0.0764,
3655.000,0.0765,
3654.000,0.0767,
3653.000,0.0768,
3652.000,0.0769,
3651.000,0.077,
3650.000,0.0771,
3649.000,0.0772,
3648.000,0.0772,
3647.000,0.0773,
3646.000,0.0775,
3645.000,0.0777,
3644.000,0.0779,
3643.000,0.0781,
3642.000,0.0783,
3641.000,0.0786,
3640.000,0.0789,
3639.000,0.0791,
3638.000,0.0793,
3637.000,0.0795,
3636.000,0.0797,
3635.000,0.0799,
3634.000,0.0801,
3633.000,0.0803,
3632.000,0.0805,
3631.000,0.0806,
3630.000,0.0807,
3629.000,0.0808,
3628.000,0.081,
3627.000,0.0812,
3626.000,0.0814,
3625.000,0.0815,
3624.000,0.0817,
3623.000,0.0819,
3622.000,0.082,
3621.000,0.0822,
3620.000,0.0824,
3619.000,0.0826,
3618.000,0.0827,
3617.000,0.0827,
3616.000,0.0827,
3615.000,0.0826,
3614.000,0.0826,
3613.000,0.0826,
3612.000,0.0826,
3611.000,0.0826,
3610.000,0.0825,
3609.000,0.0825,
3608.000,0.0825,
3607.000,0.0825,
3606.000,0.0826,
3605.000,0.0826,
3604.000,0.0826,
3603.000,0.0826,
3602.000,0.0825,
3601.000,0.0825,
3600.000,0.0825,
3599.000,0.0825,
3598.000,0.0824,
3597.000,0.0823,
3596.000,0.0822,
3595.000,0.0821,
3594.000,0.0821,
3593.000,0.082,
3592.000,0.082,
3591.000,0.0819,
3590.000,0.0818,
3589.000,0.0817,
3588.000,0.0815,
3587.000,0.0814,
3586.000,0.0814,
3585.000,0.0813,
3584.000,0.0813,
3583.000,0.0813,
3582.000,0.0813,
3581.000,0.0814,
3580.000,0.0814,
3579.000,0.0814,
3578.000,0.0814,
3577.000,0.0814,
3576.000,0.0814,
3575.000,0.0814,
3574.000,0.0813,
3573.000,0.0813,
3572.000,0.0812,
3571.000,0.0812,
3570.000,0.081,
3569.000,0.0809,
3568.000,0.0807,
3567.000,0.0805,
3566.000,0.0804,
3565.000,0.0803,
3564.000,0.0803,
3563.000,0.0803,
3562.000,0.0804,
3561.000,0.0806,
3560.000,0.0807,
3559.000,0.0808,
3558.000,0.0809,
3557.000,0.081,
3556.000,0.081,
3555.000,0.0811,
3554.000,0.0811,
3553.000,0.0812,
3552.000,0.0812,
3551.000,0.0812,
3550.000,0.0813,
3549.000,0.0813,
3548.000,0.0813,
3547.000,0.0812,
3546.000,0.0812,
3545.000,0.0813,
3544.000,0.0813,
3543.000,0.0814,
3542.000,0.0814,
3541.000,0.0816,
3540.000,0.0817,
3539.000,0.0818,
3538.000,0.0819,
3537.000,0.082,
3536.000,0.0821,
3535.000,0.0821,
3534.000,0.0822,
3533.000,0.0822,
3532.000,0.0823,
3531.000,0.0823,
3530.000,0.0824,
3529.000,0.0824,
3528.000,0.0824,
3527.000,0.0824,
3526.000,0.0824,
3525.000,0.0824,
3524.000,0.0824,
3523.000,0.0825,
3522.000,0.0825,
3521.000,0.0826,
3520.000,0.0827,
3519.000,0.0828,
3518.000,0.0829,
3517.000,0.0829,
3516.000,0.083,
3515.000,0.083,
3514.000,0.0829,
3513.000,0.0829,
3512.000,0.0829,
3511.000,0.0828,
3510.000,0.0828,
3509.000,0.0827,
3508.000,0.0826,
3507.000,0.0826,
3506.000,0.0825,
3505.000,0.0824,
3504.000,0.0823,
3503.000,0.0822,
3502.000,0.0821,
3501.000,0.0821,
3500.000,0.082,
3499.000,0.082,
3498.000,0.0819,
3497.000,0.0819,
3496.000,0.0818,
3495.000,0.0818,
3494.000,0.0817,
3493.000,0.0817,
3492.000,0.0817,
3491.000,0.0817,
3490.000,0.0817,
3489.000,0.0816,
3488.000,0.0816,
3487.000,0.0816,
3486.000,0.0816,
3485.000,0.0816,
3484.000,0.0817,
3483.000,0.0817,
3482.000,0.0817,
3481.000,0.0817,
3480.000,0.0817,
3479.000,0.0818,
3478.000,0.0818,
3477.000,0.0818,
3476.000,0.0819,
3475.000,0.0819,
3474.000,0.082,
3473.000,0.082,
3472.000,0.082,
3471.000,0.082,
3470.000,0.082,
3469.000,0.082,
3468.000,0.082,
3467.000,0.082,
3466.000,0.0821,
3465.000,0.0821,
3464.000,0.0822,
3463.000,0.0823,
3462.000,0.0824,
3461.000,0.0825,
3460.000,0.0825,
3459.000,0.0826,
3458.000,0.0827,
3457.000,0.0829,
3456.000,0.083,
3455.000,0.0832,
3454.000,0.0834,
3453.000,0.0836,
3452.000,0.0838,
3451.000,0.084,
3450.000,0.0843,
3449.000,0.0845,
3448.000,0.0848,
3447.000,0.0851,
3446.000,0.0854,
3445.000,0.0858,
3444.000,0.0862,
3443.000,0.0867,
3442.000,0.0872,
3441.000,0.0877,
3440.000,0.0882,
3439.000,0.0888,
3438.000,0.0893,
3437.000,0.0899,
3436.000,0.0906,
3435.000,0.0913,
3434.000,0.0922,
3433.000,0.0931,
3432.000,0.094,
3431.000,0.0951,
3430.000,0.0962,
3429.000,0.0974,
3428.000,0.0987,
3427.000,0.1001,
3426.000,0.1016,
3425.000,0.1032,
3424.000,0.1049,
3423.000,0.1066,
3422.000,0.1085,
3421.000,0.1105,
3420.000,0.1126,
3419.000,0.1148,
3418.000,0.1171,
3417.000,0.1194,
3416.000,0.1218,
3415.000,0.1241,
3414.000,0.1264,
3413.000,0.1286,
3412.000,0.1307,
3411.000,0.1327,
3410.000,0.1344,
3409.000,0.1358,
3408.000,0.137,
3407.000,0.1377,
3406.000,0.138,
3405.000,0.1379,
3404.000,0.1374,
3403.000,0.1364,
3402.000,0.1349,
3401.000,0.133,
3400.000,0.1309,
3399.000,0.1285,
3398.000,0.126,
3397.000,0.1234,
3396.000,0.1207,
3395.000,0.1181,
3394.000,0.1154,
3393.000,0.1129,
3392.000,0.1104,
3391.000,0.1082,
3390.000,0.106,
3389.000,0.1041,
3388.000,0.1023,
3387.000,0.1006,
3386.000,0.0991,
3385.000,0.0976,
3384.000,0.0962,
3383.000,0.0949,
3382.000,0.0937,
3381.000,0.0926,
3380.000,0.0916,
3379.000,0.0906,
3378.000,0.0897,
3377.000,0.0889,
3376.000,0.0882,
3375.000,0.0875,
3374.000,0.0869,
3373.000,0.0863,
3372.000,0.0859,
3371.000,0.0854,
3370.000,0.085,
3369.000,0.0846,
3368.000,0.0843,
3367.000,0.084,
3366.000,0.0837,
3365.000,0.0835,
3364.000,0.0833,
3363.000,0.0831,
3362.000,0.0829,
3361.000,0.0827,
3360.000,0.0825,
3359.000,0.0824,
3358.000,0.0822,
3357.000,0.0821,
3356.000,0.082,
3355.000,0.0819,
3354.000,0.0818,
3353.000,0.0817,
3352.000,0.0816,
3351.000,0.0815,
3350.000,0.0813,
3349.000,0.0812,
3348.000,0.0811,
3347.000,0.081,
3346.000,0.0809,
3345.000,0.0808,
3344.000,0.0806,
3343.000,0.0805,
3342.000,0.0803,
3341.000,0.0802,
3340.000,0.08,
3339.000,0.0798,
3338.000,0.0797,
3337.000,0.0795,
3336.000,0.0794,
3335.000,0.0793,
3334.000,0.0792,
3333.000,0.0791,
3332.000,0.0789,
3331.000,0.0788,
3330.000,0.0787,
3329.000,0.0786,
3328.000,0.0784,
3327.000,0.0783,
3326.000,0.0781,
3325.000,0.078,
3324.000,0.0779,
3323.000,0.0777,
3322.000,0.0776,
3321.000,0.0774,
